SpectraSuite Data File
++++++++++++++++++++++++++++++++++++
Date: Fri Feb 17 17:45:32 PST 2017
User: admin
Dark Spectrum Present: No
Reference Spectrum Present: No
Number of Sampled Component Spectra: 1
Spectrometers: USB2G8485
Integration Time (usec): 100000 (USB2G8485)
Spectra Averaged: 1 (USB2G8485)
Boxcar Smoothing: 1 (USB2G8485)
Correct for Electrical Dark: No (USB2G8485)
Strobe/Lamp Enabled: No (USB2G8485)
Correct for Detector Non-linearity: No (USB2G8485)
Correct for Stray Light: No (USB2G8485)
Number of Pixels in Processed Spectrum: 2048
>>>>>Begin Processed Spectral Data<<<<<
0.00	0.00
1.00	81.00
2.00	122.00
3.00	122.33
4.00	124.00
5.00	125.67
6.00	127.00
7.00	128.00
8.00	128.00
9.00	128.33
10.00	128.33
11.00	129.00
12.00	129.33
13.00	129.67
14.00	130.33
15.00	131.00
16.00	130.67
17.00	130.33
18.00	130.33
19.00	131.00
20.00	130.33
21.00	130.00
22.00	130.00
23.00	129.67
24.00	129.00
25.00	128.67
26.00	130.67
27.00	132.67
28.00	133.33
29.00	132.33
30.00	131.67
31.00	132.33
32.00	133.67
33.00	134.00
34.00	133.33
35.00	133.00
36.00	133.33
37.00	135.67
38.00	136.33
39.00	136.67
40.00	135.67
41.00	135.33
42.00	134.67
43.00	133.67
44.00	132.33
45.00	132.33
46.00	132.33
47.00	133.33
48.00	134.33
49.00	135.00
50.00	135.33
51.00	134.33
52.00	133.33
53.00	132.67
54.00	134.00
55.00	135.67
56.00	136.67
57.00	135.67
58.00	134.33
59.00	132.33
60.00	132.33
61.00	132.33
62.00	133.67
63.00	133.33
64.00	133.33
65.00	134.33
66.00	135.33
67.00	136.67
68.00	136.33
69.00	136.33
70.00	137.00
71.00	137.00
72.00	136.33
73.00	135.00
74.00	135.00
75.00	135.33
76.00	135.33
77.00	134.67
78.00	134.00
79.00	135.33
80.00	136.67
81.00	137.00
82.00	135.67
83.00	135.33
84.00	136.67
85.00	137.33
86.00	136.67
87.00	136.00
88.00	136.33
89.00	137.67
90.00	138.00
91.00	138.33
92.00	138.33
93.00	138.67
94.00	138.67
95.00	137.67
96.00	138.00
97.00	138.00
98.00	137.67
99.00	136.33
100.00	135.67
101.00	137.00
102.00	136.33
103.00	135.33
104.00	134.67
105.00	137.00
106.00	139.67
107.00	141.33
108.00	141.00
109.00	140.33
110.00	140.00
111.00	140.67
112.00	143.00
113.00	149.33
114.00	156.00
115.00	163.00
116.00	162.33
117.00	159.67
118.00	154.33
119.00	151.67
120.00	151.00
121.00	150.00
122.00	150.00
123.00	151.67
124.00	156.33
125.00	163.00
126.00	171.00
127.00	185.00
128.00	214.33
129.00	322.33
130.00	745.00
131.00	1697.67
132.00	2881.33
133.00	3400.67
134.00	2799.33
135.00	1525.33
136.00	574.67
137.00	192.33
138.00	167.00
139.00	157.33
140.00	152.33
141.00	149.00
142.00	148.67
143.00	148.33
144.00	149.00
145.00	148.00
146.00	146.33
147.00	143.67
148.00	141.67
149.00	140.33
150.00	143.33
151.00	159.33
152.00	188.00
153.00	211.33
154.00	207.67
155.00	183.00
156.00	157.33
157.00	145.00
158.00	141.67
159.00	142.00
160.00	143.67
161.00	144.67
162.00	143.67
163.00	141.33
164.00	141.33
165.00	143.00
166.00	154.00
167.00	187.67
168.00	259.00
169.00	330.00
170.00	341.33
171.00	282.00
172.00	205.33
173.00	160.00
174.00	145.67
175.00	142.33
176.00	141.67
177.00	142.00
178.00	139.00
179.00	137.00
180.00	135.67
181.00	137.00
182.00	137.33
183.00	137.67
184.00	137.67
185.00	138.00
186.00	137.67
187.00	137.00
188.00	137.00
189.00	138.33
190.00	139.67
191.00	141.67
192.00	147.00
193.00	158.00
194.00	174.00
195.00	180.67
196.00	175.33
197.00	160.33
198.00	150.67
199.00	148.67
200.00	152.00
201.00	155.33
202.00	153.00
203.00	149.33
204.00	145.00
205.00	144.67
206.00	145.00
207.00	143.67
208.00	143.33
209.00	140.33
210.00	141.00
211.00	140.33
212.00	140.00
213.00	137.33
214.00	136.33
215.00	137.67
216.00	141.00
217.00	141.67
218.00	142.00
219.00	140.67
220.00	141.33
221.00	141.00
222.00	140.67
223.00	140.00
224.00	138.67
225.00	139.00
226.00	138.33
227.00	139.33
228.00	139.00
229.00	140.33
230.00	140.00
231.00	140.33
232.00	141.00
233.00	141.00
234.00	140.67
235.00	138.33
236.00	138.00
237.00	138.67
238.00	139.67
239.00	141.33
240.00	141.67
241.00	142.00
242.00	141.67
243.00	141.33
244.00	142.00
245.00	142.33
246.00	142.00
247.00	141.67
248.00	140.67
249.00	140.00
250.00	140.00
251.00	139.33
252.00	139.67
253.00	140.33
254.00	143.00
255.00	145.33
256.00	144.33
257.00	142.00
258.00	139.33
259.00	140.67
260.00	144.67
261.00	147.33
262.00	148.67
263.00	152.00
264.00	169.00
265.00	208.00
266.00	246.67
267.00	254.33
268.00	225.33
269.00	185.33
270.00	160.00
271.00	149.67
272.00	148.33
273.00	152.33
274.00	154.33
275.00	155.33
276.00	154.33
277.00	158.00
278.00	163.67
279.00	170.33
280.00	173.00
281.00	172.00
282.00	172.67
283.00	175.33
284.00	188.00
285.00	268.00
286.00	684.33
287.00	1692.33
288.00	2919.00
289.00	3660.00
290.00	3186.67
291.00	2035.33
292.00	892.67
293.00	348.33
294.00	189.67
295.00	166.67
296.00	158.00
297.00	154.00
298.00	153.00
299.00	153.00
300.00	151.67
301.00	151.33
302.00	148.67
303.00	148.00
304.00	146.67
305.00	145.67
306.00	144.00
307.00	143.33
308.00	145.00
309.00	145.33
310.00	144.33
311.00	142.67
312.00	142.33
313.00	143.00
314.00	145.00
315.00	146.67
316.00	145.67
317.00	142.67
318.00	140.33
319.00	139.33
320.00	138.67
321.00	139.00
322.00	140.00
323.00	141.67
324.00	140.67
325.00	139.67
326.00	138.67
327.00	139.00
328.00	141.67
329.00	144.00
330.00	146.00
331.00	144.67
332.00	144.67
333.00	144.67
334.00	145.33
335.00	144.67
336.00	144.33
337.00	144.00
338.00	145.67
339.00	148.00
340.00	149.33
341.00	149.67
342.00	149.00
343.00	148.00
344.00	146.00
345.00	145.00
346.00	145.00
347.00	147.33
348.00	149.67
349.00	152.67
350.00	157.33
351.00	210.00
352.00	380.67
353.00	717.67
354.00	1035.00
355.00	1120.00
356.00	888.67
357.00	546.00
358.00	296.00
359.00	186.67
360.00	158.33
361.00	149.33
362.00	146.33
363.00	145.00
364.00	146.33
365.00	146.00
366.00	146.00
367.00	145.33
368.00	144.67
369.00	143.67
370.00	143.33
371.00	144.67
372.00	145.33
373.00	144.00
374.00	141.67
375.00	140.00
376.00	141.00
377.00	142.33
378.00	142.67
379.00	141.67
380.00	141.00
381.00	142.00
382.00	143.67
383.00	145.33
384.00	145.67
385.00	144.67
386.00	144.00
387.00	143.67
388.00	143.67
389.00	143.33
390.00	145.33
391.00	147.00
392.00	148.67
393.00	147.00
394.00	146.33
395.00	146.33
396.00	148.33
397.00	149.00
398.00	148.67
399.00	147.00
400.00	147.00
401.00	148.00
402.00	149.00
403.00	149.00
404.00	149.33
405.00	149.67
406.00	149.67
407.00	158.00
408.00	255.33
409.00	577.33
410.00	1121.67
411.00	1613.33
412.00	1713.33
413.00	1372.67
414.00	863.67
415.00	462.00
416.00	257.33
417.00	177.00
418.00	156.67
419.00	148.67
420.00	150.00
421.00	152.67
422.00	155.33
423.00	157.33
424.00	159.00
425.00	160.67
426.00	159.67
427.00	157.33
428.00	155.33
429.00	158.00
430.00	160.00
431.00	163.33
432.00	172.00
433.00	245.00
434.00	688.33
435.00	1829.00
436.00	3067.67
437.00	3934.00
438.00	4062.33
439.00	3275.00
440.00	2158.67
441.00	931.67
442.00	427.00
443.00	267.33
444.00	292.67
445.00	367.67
446.00	417.33
447.00	388.33
448.00	313.67
449.00	234.67
450.00	185.33
451.00	162.33
452.00	150.33
453.00	145.67
454.00	146.00
455.00	147.67
456.00	147.00
457.00	144.33
458.00	144.00
459.00	145.00
460.00	145.00
461.00	143.67
462.00	143.00
463.00	143.00
464.00	141.33
465.00	139.00
466.00	137.33
467.00	138.67
468.00	140.33
469.00	140.00
470.00	140.00
471.00	140.33
472.00	140.33
473.00	139.33
474.00	139.33
475.00	140.33
476.00	141.00
477.00	140.67
478.00	141.00
479.00	140.00
480.00	139.67
481.00	138.67
482.00	139.33
483.00	139.00
484.00	138.67
485.00	139.00
486.00	138.00
487.00	138.67
488.00	138.00
489.00	140.00
490.00	139.67
491.00	139.67
492.00	139.33
493.00	139.67
494.00	139.00
495.00	140.00
496.00	141.33
497.00	143.67
498.00	144.00
499.00	145.00
500.00	146.67
501.00	149.33
502.00	150.67
503.00	150.67
504.00	150.00
505.00	149.67
506.00	149.67
507.00	149.00
508.00	147.67
509.00	145.33
510.00	143.33
511.00	142.33
512.00	143.00
513.00	144.33
514.00	145.33
515.00	145.00
516.00	142.67
517.00	141.33
518.00	140.33
519.00	140.33
520.00	140.33
521.00	142.33
522.00	144.00
523.00	146.00
524.00	146.00
525.00	145.00
526.00	142.67
527.00	140.00
528.00	139.33
529.00	139.33
530.00	140.00
531.00	140.33
532.00	140.67
533.00	141.00
534.00	141.67
535.00	141.67
536.00	140.67
537.00	138.33
538.00	137.00
539.00	137.67
540.00	139.00
541.00	139.00
542.00	138.33
543.00	138.33
544.00	140.00
545.00	141.33
546.00	141.67
547.00	143.67
548.00	145.33
549.00	145.67
550.00	142.00
551.00	139.67
552.00	140.67
553.00	142.00
554.00	142.67
555.00	140.67
556.00	140.00
557.00	140.33
558.00	141.67
559.00	142.00
560.00	140.67
561.00	138.00
562.00	137.67
563.00	137.33
564.00	139.00
565.00	139.00
566.00	139.00
567.00	141.67
568.00	142.33
569.00	143.67
570.00	141.67
571.00	141.33
572.00	143.00
573.00	145.33
574.00	146.33
575.00	146.00
576.00	145.00
577.00	146.67
578.00	147.00
579.00	147.00
580.00	146.33
581.00	147.67
582.00	147.00
583.00	145.33
584.00	141.67
585.00	143.00
586.00	144.33
587.00	147.33
588.00	148.67
589.00	149.67
590.00	151.00
591.00	152.33
592.00	154.00
593.00	154.00
594.00	155.00
595.00	156.00
596.00	156.33
597.00	156.67
598.00	155.67
599.00	157.33
600.00	156.00
601.00	155.67
602.00	154.33
603.00	153.33
604.00	153.00
605.00	153.00
606.00	153.33
607.00	153.00
608.00	152.67
609.00	153.00
610.00	151.33
611.00	149.33
612.00	147.67
613.00	147.67
614.00	146.00
615.00	144.33
616.00	144.00
617.00	145.67
618.00	148.00
619.00	149.33
620.00	150.67
621.00	150.67
622.00	151.00
623.00	150.67
624.00	151.67
625.00	155.00
626.00	160.33
627.00	166.00
628.00	169.33
629.00	173.67
630.00	177.67
631.00	179.00
632.00	178.33
633.00	177.67
634.00	181.67
635.00	182.33
636.00	180.67
637.00	178.33
638.00	178.00
639.00	177.33
640.00	176.00
641.00	177.67
642.00	183.00
643.00	193.00
644.00	201.67
645.00	204.67
646.00	201.00
647.00	194.33
648.00	192.33
649.00	194.00
650.00	197.33
651.00	198.33
652.00	194.00
653.00	190.33
654.00	189.67
655.00	190.33
656.00	191.67
657.00	191.33
658.00	195.00
659.00	195.33
660.00	194.33
661.00	198.00
662.00	224.33
663.00	276.67
664.00	337.33
665.00	369.67
666.00	361.33
667.00	332.67
668.00	315.33
669.00	325.00
670.00	360.00
671.00	443.67
672.00	850.67
673.00	2078.67
674.00	3254.00
675.00	4095.00
676.00	4095.00
677.00	4095.00
678.00	4095.00
679.00	4095.00
680.00	4095.00
681.00	4095.00
682.00	3442.33
683.00	2317.67
684.00	1104.00
685.00	509.00
686.00	364.67
687.00	296.00
688.00	256.67
689.00	230.00
690.00	213.00
691.00	198.33
692.00	191.33
693.00	186.33
694.00	183.00
695.00	178.67
696.00	174.33
697.00	173.00
698.00	172.33
699.00	171.33
700.00	166.00
701.00	164.67
702.00	165.00
703.00	166.00
704.00	164.67
705.00	162.67
706.00	163.67
707.00	163.67
708.00	163.33
709.00	159.67
710.00	156.67
711.00	154.67
712.00	154.00
713.00	153.33
714.00	151.67
715.00	151.33
716.00	150.67
717.00	151.33
718.00	151.67
719.00	152.00
720.00	151.00
721.00	149.33
722.00	146.33
723.00	145.33
724.00	145.33
725.00	145.67
726.00	145.33
727.00	145.33
728.00	145.00
729.00	145.67
730.00	146.00
731.00	147.33
732.00	147.00
733.00	144.67
734.00	143.33
735.00	144.67
736.00	145.00
737.00	145.33
738.00	143.00
739.00	143.33
740.00	141.67
741.00	141.33
742.00	142.00
743.00	143.67
744.00	143.33
745.00	141.67
746.00	140.67
747.00	140.00
748.00	140.67
749.00	143.33
750.00	145.33
751.00	147.00
752.00	145.67
753.00	147.33
754.00	149.33
755.00	154.67
756.00	158.67
757.00	161.00
758.00	158.67
759.00	154.67
760.00	151.00
761.00	148.00
762.00	145.67
763.00	144.00
764.00	144.00
765.00	145.33
766.00	145.33
767.00	145.00
768.00	144.00
769.00	143.67
770.00	143.67
771.00	144.33
772.00	145.00
773.00	143.67
774.00	143.00
775.00	142.33
776.00	142.00
777.00	140.33
778.00	140.33
779.00	142.33
780.00	145.33
781.00	144.67
782.00	144.00
783.00	141.67
784.00	142.67
785.00	144.00
786.00	144.67
787.00	144.67
788.00	145.33
789.00	147.00
790.00	146.00
791.00	144.00
792.00	142.67
793.00	142.33
794.00	142.33
795.00	142.00
796.00	142.33
797.00	142.33
798.00	143.33
799.00	143.67
800.00	144.00
801.00	143.33
802.00	144.33
803.00	143.67
804.00	143.33
805.00	143.67
806.00	145.33
807.00	146.33
808.00	146.00
809.00	146.67
810.00	147.67
811.00	148.00
812.00	146.00
813.00	145.33
814.00	146.00
815.00	147.00
816.00	147.67
817.00	148.00
818.00	147.67
819.00	146.33
820.00	144.67
821.00	144.67
822.00	145.00
823.00	145.33
824.00	147.33
825.00	149.00
826.00	150.67
827.00	150.00
828.00	149.00
829.00	147.33
830.00	146.00
831.00	144.67
832.00	143.67
833.00	142.00
834.00	142.67
835.00	143.00
836.00	144.00
837.00	142.67
838.00	141.67
839.00	143.00
840.00	145.67
841.00	147.67
842.00	149.00
843.00	149.00
844.00	146.67
845.00	142.33
846.00	140.67
847.00	142.67
848.00	144.00
849.00	142.67
850.00	141.00
851.00	141.33
852.00	142.33
853.00	142.00
854.00	141.00
855.00	139.33
856.00	138.00
857.00	137.33
858.00	138.67
859.00	142.33
860.00	144.33
861.00	144.67
862.00	144.33
863.00	145.00
864.00	146.33
865.00	146.67
866.00	148.00
867.00	148.00
868.00	151.00
869.00	151.33
870.00	151.00
871.00	148.33
872.00	146.67
873.00	147.67
874.00	147.00
875.00	147.00
876.00	146.33
877.00	148.67
878.00	152.33
879.00	155.00
880.00	156.67
881.00	155.33
882.00	155.67
883.00	153.67
884.00	153.00
885.00	150.00
886.00	147.67
887.00	145.67
888.00	147.00
889.00	148.00
890.00	148.00
891.00	146.33
892.00	146.33
893.00	150.33
894.00	157.67
895.00	169.67
896.00	180.33
897.00	185.67
898.00	182.33
899.00	176.67
900.00	177.67
901.00	191.33
902.00	293.00
903.00	1117.00
904.00	2410.33
905.00	3616.33
906.00	4095.00
907.00	4095.00
908.00	4095.00
909.00	4095.00
910.00	3976.33
911.00	3252.67
912.00	2242.67
913.00	1175.00
914.00	637.00
915.00	356.67
916.00	242.67
917.00	196.00
918.00	175.00
919.00	161.33
920.00	156.33
921.00	153.67
922.00	151.67
923.00	149.00
924.00	146.67
925.00	145.33
926.00	143.67
927.00	142.67
928.00	143.67
929.00	143.33
930.00	143.00
931.00	141.67
932.00	142.33
933.00	142.67
934.00	142.33
935.00	142.67
936.00	142.67
937.00	142.33
938.00	141.67
939.00	140.00
940.00	139.33
941.00	138.33
942.00	139.00
943.00	140.00
944.00	140.00
945.00	139.33
946.00	137.67
947.00	136.00
948.00	136.33
949.00	138.33
950.00	140.00
951.00	140.33
952.00	138.00
953.00	136.33
954.00	136.00
955.00	138.33
956.00	140.33
957.00	141.33
958.00	141.00
959.00	141.00
960.00	139.67
961.00	138.33
962.00	138.33
963.00	138.00
964.00	138.00
965.00	137.00
966.00	137.67
967.00	140.67
968.00	142.00
969.00	143.67
970.00	141.00
971.00	141.00
972.00	140.00
973.00	140.00
974.00	138.33
975.00	137.33
976.00	137.33
977.00	140.00
978.00	139.67
979.00	140.00
980.00	141.33
981.00	145.33
982.00	149.00
983.00	148.33
984.00	148.00
985.00	145.67
986.00	144.67
987.00	145.00
988.00	146.33
989.00	147.33
990.00	146.67
991.00	147.33
992.00	149.33
993.00	151.33
994.00	152.33
995.00	152.00
996.00	150.67
997.00	150.00
998.00	148.67
999.00	150.67
1000.00	150.67
1001.00	151.67
1002.00	151.00
1003.00	151.33
1004.00	151.67
1005.00	152.33
1006.00	152.33
1007.00	154.67
1008.00	165.00
1009.00	183.33
1010.00	204.00
1011.00	215.67
1012.00	215.67
1013.00	212.33
1014.00	215.67
1015.00	260.33
1016.00	778.00
1017.00	2066.00
1018.00	3317.67
1019.00	4095.00
1020.00	4095.00
1021.00	4095.00
1022.00	4095.00
1023.00	4095.00
1024.00	4095.00
1025.00	3930.67
1026.00	3123.33
1027.00	2043.67
1028.00	996.33
1029.00	539.00
1030.00	329.00
1031.00	242.67
1032.00	202.67
1033.00	184.00
1034.00	172.33
1035.00	164.33
1036.00	158.00
1037.00	152.00
1038.00	148.00
1039.00	144.67
1040.00	142.67
1041.00	141.67
1042.00	140.67
1043.00	140.00
1044.00	138.67
1045.00	139.33
1046.00	138.33
1047.00	139.00
1048.00	138.33
1049.00	139.00
1050.00	139.33
1051.00	140.67
1052.00	141.00
1053.00	142.00
1054.00	141.33
1055.00	140.33
1056.00	138.33
1057.00	138.00
1058.00	140.00
1059.00	141.67
1060.00	141.67
1061.00	140.33
1062.00	138.33
1063.00	137.33
1064.00	138.00
1065.00	140.33
1066.00	141.67
1067.00	141.00
1068.00	140.67
1069.00	140.67
1070.00	140.33
1071.00	139.00
1072.00	138.67
1073.00	139.67
1074.00	141.67
1075.00	143.33
1076.00	143.67
1077.00	142.33
1078.00	142.67
1079.00	146.00
1080.00	186.33
1081.00	405.00
1082.00	906.33
1083.00	1528.67
1084.00	1924.67
1085.00	1860.33
1086.00	1538.00
1087.00	1175.33
1088.00	906.67
1089.00	685.33
1090.00	505.67
1091.00	368.67
1092.00	266.33
1093.00	200.00
1094.00	167.67
1095.00	151.33
1096.00	143.67
1097.00	139.67
1098.00	137.67
1099.00	137.67
1100.00	137.33
1101.00	137.33
1102.00	136.67
1103.00	137.33
1104.00	137.33
1105.00	136.67
1106.00	135.33
1107.00	135.00
1108.00	135.00
1109.00	135.33
1110.00	135.00
1111.00	133.33
1112.00	133.33
1113.00	134.00
1114.00	135.00
1115.00	135.00
1116.00	135.33
1117.00	136.00
1118.00	136.33
1119.00	135.33
1120.00	135.00
1121.00	134.00
1122.00	133.33
1123.00	132.33
1124.00	132.00
1125.00	132.00
1126.00	133.00
1127.00	133.33
1128.00	133.67
1129.00	133.00
1130.00	133.33
1131.00	134.00
1132.00	133.67
1133.00	133.67
1134.00	132.67
1135.00	132.33
1136.00	131.67
1137.00	132.00
1138.00	132.33
1139.00	132.67
1140.00	132.33
1141.00	132.67
1142.00	132.67
1143.00	134.33
1144.00	135.00
1145.00	135.33
1146.00	133.67
1147.00	133.00
1148.00	133.67
1149.00	134.33
1150.00	135.33
1151.00	135.67
1152.00	135.33
1153.00	134.33
1154.00	132.33
1155.00	132.33
1156.00	131.33
1157.00	133.00
1158.00	134.00
1159.00	136.67
1160.00	135.33
1161.00	134.33
1162.00	133.67
1163.00	134.67
1164.00	134.00
1165.00	132.67
1166.00	132.00
1167.00	132.67
1168.00	132.67
1169.00	132.67
1170.00	133.33
1171.00	134.00
1172.00	133.67
1173.00	132.00
1174.00	131.00
1175.00	130.67
1176.00	131.67
1177.00	132.00
1178.00	131.67
1179.00	131.33
1180.00	131.33
1181.00	131.67
1182.00	131.67
1183.00	132.33
1184.00	133.00
1185.00	133.33
1186.00	132.33
1187.00	131.67
1188.00	132.67
1189.00	134.00
1190.00	135.33
1191.00	134.00
1192.00	132.00
1193.00	132.00
1194.00	133.67
1195.00	136.00
1196.00	136.33
1197.00	136.00
1198.00	135.00
1199.00	134.33
1200.00	133.33
1201.00	134.00
1202.00	134.00
1203.00	134.33
1204.00	134.00
1205.00	134.33
1206.00	135.00
1207.00	134.67
1208.00	133.67
1209.00	132.33
1210.00	132.67
1211.00	133.00
1212.00	133.67
1213.00	133.00
1214.00	131.67
1215.00	131.67
1216.00	134.00
1217.00	136.67
1218.00	137.00
1219.00	135.33
1220.00	134.33
1221.00	134.00
1222.00	134.00
1223.00	134.00
1224.00	134.00
1225.00	133.67
1226.00	134.33
1227.00	136.00
1228.00	138.33
1229.00	148.00
1230.00	188.00
1231.00	255.67
1232.00	320.00
1233.00	338.00
1234.00	315.33
1235.00	276.67
1236.00	244.00
1237.00	218.33
1238.00	197.33
1239.00	180.00
1240.00	165.33
1241.00	154.00
1242.00	145.67
1243.00	138.67
1244.00	135.00
1245.00	133.67
1246.00	133.67
1247.00	132.67
1248.00	132.67
1249.00	132.67
1250.00	133.00
1251.00	132.67
1252.00	132.67
1253.00	132.67
1254.00	133.00
1255.00	133.00
1256.00	133.00
1257.00	132.67
1258.00	132.33
1259.00	131.67
1260.00	130.67
1261.00	130.33
1262.00	131.00
1263.00	132.33
1264.00	133.00
1265.00	133.00
1266.00	133.00
1267.00	132.67
1268.00	132.67
1269.00	132.33
1270.00	132.00
1271.00	131.33
1272.00	130.33
1273.00	130.33
1274.00	129.67
1275.00	130.67
1276.00	132.33
1277.00	135.00
1278.00	135.33
1279.00	135.00
1280.00	134.67
1281.00	135.00
1282.00	134.00
1283.00	133.00
1284.00	132.67
1285.00	132.67
1286.00	131.67
1287.00	130.67
1288.00	131.00
1289.00	131.33
1290.00	131.33
1291.00	130.33
1292.00	130.67
1293.00	131.33
1294.00	132.33
1295.00	132.67
1296.00	131.67
1297.00	131.67
1298.00	131.67
1299.00	132.00
1300.00	132.33
1301.00	131.67
1302.00	131.00
1303.00	129.33
1304.00	128.67
1305.00	129.00
1306.00	128.33
1307.00	129.33
1308.00	130.00
1309.00	131.33
1310.00	132.00
1311.00	133.33
1312.00	133.67
1313.00	135.00
1314.00	134.00
1315.00	134.67
1316.00	133.33
1317.00	132.00
1318.00	131.67
1319.00	132.67
1320.00	134.67
1321.00	134.67
1322.00	132.67
1323.00	132.00
1324.00	131.67
1325.00	132.33
1326.00	133.67
1327.00	134.67
1328.00	134.33
1329.00	132.00
1330.00	130.33
1331.00	130.33
1332.00	131.00
1333.00	132.00
1334.00	132.00
1335.00	132.67
1336.00	133.33
1337.00	135.33
1338.00	135.00
1339.00	134.33
1340.00	133.00
1341.00	133.00
1342.00	132.33
1343.00	131.33
1344.00	132.33
1345.00	133.00
1346.00	133.67
1347.00	132.00
1348.00	132.00
1349.00	132.67
1350.00	133.67
1351.00	134.00
1352.00	133.33
1353.00	131.33
1354.00	130.33
1355.00	129.33
1356.00	130.00
1357.00	131.00
1358.00	133.00
1359.00	133.67
1360.00	133.33
1361.00	132.67
1362.00	133.00
1363.00	132.00
1364.00	131.67
1365.00	130.67
1366.00	130.33
1367.00	130.00
1368.00	130.67
1369.00	131.00
1370.00	130.00
1371.00	129.67
1372.00	130.33
1373.00	131.33
1374.00	130.33
1375.00	129.33
1376.00	129.00
1377.00	130.00
1378.00	131.67
1379.00	134.00
1380.00	135.00
1381.00	134.33
1382.00	132.67
1383.00	132.00
1384.00	133.33
1385.00	133.33
1386.00	133.00
1387.00	131.00
1388.00	130.00
1389.00	130.67
1390.00	131.67
1391.00	133.00
1392.00	133.00
1393.00	132.00
1394.00	130.33
1395.00	128.33
1396.00	128.33
1397.00	129.00
1398.00	130.00
1399.00	130.67
1400.00	134.67
1401.00	138.33
1402.00	139.33
1403.00	136.33
1404.00	133.00
1405.00	131.33
1406.00	130.00
1407.00	129.67
1408.00	130.00
1409.00	130.67
1410.00	131.00
1411.00	130.33
1412.00	129.00
1413.00	129.67
1414.00	131.33
1415.00	133.00
1416.00	133.33
1417.00	133.00
1418.00	132.67
1419.00	132.00
1420.00	130.67
1421.00	131.00
1422.00	131.67
1423.00	134.00
1424.00	134.00
1425.00	133.33
1426.00	132.00
1427.00	132.33
1428.00	132.67
1429.00	132.33
1430.00	132.33
1431.00	132.33
1432.00	133.33
1433.00	133.00
1434.00	132.67
1435.00	134.00
1436.00	136.00
1437.00	136.00
1438.00	135.00
1439.00	136.67
1440.00	144.00
1441.00	151.00
1442.00	156.67
1443.00	156.67
1444.00	155.00
1445.00	150.33
1446.00	145.33
1447.00	140.33
1448.00	136.67
1449.00	135.00
1450.00	134.00
1451.00	133.00
1452.00	132.33
1453.00	132.00
1454.00	132.33
1455.00	133.00
1456.00	132.33
1457.00	132.67
1458.00	131.67
1459.00	132.00
1460.00	131.67
1461.00	132.33
1462.00	132.67
1463.00	132.33
1464.00	132.33
1465.00	132.67
1466.00	134.33
1467.00	135.33
1468.00	135.67
1469.00	134.00
1470.00	133.00
1471.00	132.67
1472.00	133.33
1473.00	134.00
1474.00	133.33
1475.00	132.67
1476.00	132.00
1477.00	132.33
1478.00	132.33
1479.00	131.67
1480.00	131.33
1481.00	131.00
1482.00	131.33
1483.00	131.33
1484.00	130.67
1485.00	130.33
1486.00	130.33
1487.00	131.67
1488.00	132.00
1489.00	131.33
1490.00	130.67
1491.00	130.67
1492.00	131.67
1493.00	131.33
1494.00	131.33
1495.00	131.33
1496.00	131.67
1497.00	130.67
1498.00	130.33
1499.00	130.33
1500.00	130.00
1501.00	129.67
1502.00	129.33
1503.00	130.00
1504.00	130.67
1505.00	131.00
1506.00	132.00
1507.00	131.67
1508.00	133.00
1509.00	133.67
1510.00	135.67
1511.00	135.33
1512.00	134.00
1513.00	132.33
1514.00	132.00
1515.00	133.67
1516.00	135.00
1517.00	135.00
1518.00	133.67
1519.00	131.33
1520.00	130.67
1521.00	131.33
1522.00	132.33
1523.00	132.33
1524.00	131.00
1525.00	131.00
1526.00	132.00
1527.00	133.00
1528.00	133.67
1529.00	133.33
1530.00	132.67
1531.00	131.00
1532.00	129.33
1533.00	128.67
1534.00	129.33
1535.00	130.67
1536.00	132.00
1537.00	132.33
1538.00	132.33
1539.00	131.00
1540.00	130.33
1541.00	130.33
1542.00	130.67
1543.00	131.33
1544.00	131.00
1545.00	130.67
1546.00	129.67
1547.00	128.33
1548.00	128.67
1549.00	129.67
1550.00	131.00
1551.00	132.00
1552.00	131.67
1553.00	132.33
1554.00	132.00
1555.00	132.67
1556.00	132.67
1557.00	133.00
1558.00	131.67
1559.00	130.67
1560.00	130.00
1561.00	130.33
1562.00	129.67
1563.00	129.33
1564.00	129.67
1565.00	130.67
1566.00	130.00
1567.00	130.00
1568.00	131.00
1569.00	132.33
1570.00	132.67
1571.00	131.67
1572.00	131.33
1573.00	131.67
1574.00	131.67
1575.00	131.67
1576.00	130.67
1577.00	131.00
1578.00	131.67
1579.00	133.00
1580.00	131.67
1581.00	130.00
1582.00	128.67
1583.00	129.67
1584.00	131.33
1585.00	132.33
1586.00	133.00
1587.00	132.67
1588.00	132.00
1589.00	132.00
1590.00	132.67
1591.00	133.00
1592.00	135.33
1593.00	137.00
1594.00	139.00
1595.00	136.33
1596.00	133.33
1597.00	131.00
1598.00	131.00
1599.00	132.00
1600.00	131.67
1601.00	131.67
1602.00	130.67
1603.00	130.33
1604.00	129.33
1605.00	129.33
1606.00	130.00
1607.00	130.33
1608.00	130.67
1609.00	130.67
1610.00	131.33
1611.00	131.67
1612.00	131.00
1613.00	129.67
1614.00	129.33
1615.00	130.33
1616.00	132.00
1617.00	132.33
1618.00	132.00
1619.00	131.00
1620.00	131.33
1621.00	132.67
1622.00	134.67
1623.00	134.00
1624.00	132.33
1625.00	130.67
1626.00	131.00
1627.00	132.67
1628.00	134.33
1629.00	135.67
1630.00	136.00
1631.00	135.33
1632.00	134.33
1633.00	134.67
1634.00	134.00
1635.00	133.33
1636.00	131.00
1637.00	131.33
1638.00	132.00
1639.00	132.33
1640.00	131.33
1641.00	129.67
1642.00	129.33
1643.00	131.00
1644.00	134.00
1645.00	135.00
1646.00	133.33
1647.00	132.00
1648.00	131.33
1649.00	131.00
1650.00	129.33
1651.00	128.33
1652.00	128.33
1653.00	129.00
1654.00	131.67
1655.00	132.67
1656.00	133.00
1657.00	132.33
1658.00	132.67
1659.00	133.67
1660.00	133.67
1661.00	135.00
1662.00	136.00
1663.00	136.00
1664.00	134.33
1665.00	132.00
1666.00	132.00
1667.00	131.67
1668.00	132.00
1669.00	130.67
1670.00	129.67
1671.00	130.67
1672.00	132.67
1673.00	134.00
1674.00	133.67
1675.00	132.67
1676.00	133.33
1677.00	133.00
1678.00	132.33
1679.00	131.33
1680.00	131.33
1681.00	133.33
1682.00	134.67
1683.00	135.67
1684.00	134.00
1685.00	132.67
1686.00	132.67
1687.00	133.00
1688.00	133.67
1689.00	132.00
1690.00	131.00
1691.00	130.67
1692.00	132.00
1693.00	132.67
1694.00	132.67
1695.00	132.00
1696.00	132.00
1697.00	132.33
1698.00	133.33
1699.00	133.67
1700.00	132.33
1701.00	131.00
1702.00	132.33
1703.00	135.00
1704.00	137.33
1705.00	138.00
1706.00	140.33
1707.00	141.00
1708.00	140.67
1709.00	138.00
1710.00	136.00
1711.00	135.00
1712.00	134.67
1713.00	134.33
1714.00	133.67
1715.00	132.67
1716.00	132.67
1717.00	133.67
1718.00	134.33
1719.00	134.33
1720.00	133.00
1721.00	131.33
1722.00	130.67
1723.00	131.00
1724.00	132.33
1725.00	132.33
1726.00	131.00
1727.00	131.67
1728.00	133.67
1729.00	135.33
1730.00	134.33
1731.00	132.67
1732.00	132.33
1733.00	132.00
1734.00	131.33
1735.00	129.67
1736.00	129.00
1737.00	129.33
1738.00	130.33
1739.00	131.67
1740.00	132.33
1741.00	132.33
1742.00	132.33
1743.00	132.00
1744.00	132.67
1745.00	132.67
1746.00	133.00
1747.00	133.00
1748.00	132.33
1749.00	132.00
1750.00	131.33
1751.00	131.00
1752.00	131.33
1753.00	131.33
1754.00	132.00
1755.00	132.00
1756.00	133.00
1757.00	133.00
1758.00	132.00
1759.00	131.67
1760.00	131.67
1761.00	131.00
1762.00	129.67
1763.00	129.00
1764.00	129.33
1765.00	128.67
1766.00	128.67
1767.00	129.33
1768.00	130.33
1769.00	130.00
1770.00	129.33
1771.00	129.67
1772.00	130.00
1773.00	130.00
1774.00	129.67
1775.00	129.33
1776.00	129.33
1777.00	129.67
1778.00	131.00
1779.00	132.33
1780.00	132.67
1781.00	131.33
1782.00	130.00
1783.00	128.67
1784.00	129.67
1785.00	130.67
1786.00	131.00
1787.00	130.33
1788.00	130.00
1789.00	130.33
1790.00	129.33
1791.00	127.67
1792.00	127.67
1793.00	129.67
1794.00	131.33
1795.00	132.00
1796.00	131.33
1797.00	132.00
1798.00	133.00
1799.00	134.33
1800.00	133.33
1801.00	132.00
1802.00	131.33
1803.00	132.33
1804.00	132.67
1805.00	132.33
1806.00	132.67
1807.00	133.00
1808.00	133.33
1809.00	133.33
1810.00	133.67
1811.00	134.33
1812.00	134.00
1813.00	135.00
1814.00	135.00
1815.00	135.33
1816.00	134.33
1817.00	133.33
1818.00	133.00
1819.00	131.67
1820.00	132.00
1821.00	132.33
1822.00	134.00
1823.00	134.67
1824.00	134.33
1825.00	134.00
1826.00	133.67
1827.00	133.67
1828.00	132.67
1829.00	132.00
1830.00	131.67
1831.00	131.67
1832.00	132.00
1833.00	132.33
1834.00	133.00
1835.00	132.00
1836.00	129.67
1837.00	127.33
1838.00	127.67
1839.00	129.67
1840.00	132.00
1841.00	133.00
1842.00	132.67
1843.00	132.67
1844.00	132.67
1845.00	132.00
1846.00	129.67
1847.00	127.67
1848.00	128.67
1849.00	130.33
1850.00	131.33
1851.00	132.67
1852.00	135.00
1853.00	136.00
1854.00	135.33
1855.00	134.00
1856.00	132.67
1857.00	131.67
1858.00	130.67
1859.00	131.33
1860.00	132.33
1861.00	132.67
1862.00	133.33
1863.00	134.00
1864.00	133.33
1865.00	131.67
1866.00	129.67
1867.00	131.00
1868.00	133.33
1869.00	134.00
1870.00	133.67
1871.00	132.00
1872.00	131.00
1873.00	130.00
1874.00	129.33
1875.00	130.00
1876.00	130.67
1877.00	132.33
1878.00	132.00
1879.00	130.33
1880.00	129.67
1881.00	131.33
1882.00	132.33
1883.00	131.00
1884.00	130.00
1885.00	131.00
1886.00	133.00
1887.00	133.00
1888.00	132.33
1889.00	131.00
1890.00	130.33
1891.00	130.33
1892.00	131.00
1893.00	131.67
1894.00	132.33
1895.00	132.00
1896.00	132.00
1897.00	132.00
1898.00	133.00
1899.00	133.33
1900.00	133.33
1901.00	133.33
1902.00	133.33
1903.00	132.67
1904.00	130.67
1905.00	129.00
1906.00	129.00
1907.00	131.67
1908.00	134.33
1909.00	136.33
1910.00	136.00
1911.00	135.00
1912.00	132.67
1913.00	131.33
1914.00	131.00
1915.00	131.00
1916.00	130.67
1917.00	131.00
1918.00	132.33
1919.00	133.00
1920.00	133.00
1921.00	132.67
1922.00	132.67
1923.00	132.00
1924.00	130.67
1925.00	129.33
1926.00	129.67
1927.00	130.00
1928.00	130.67
1929.00	130.00
1930.00	130.00
1931.00	130.67
1932.00	131.33
1933.00	132.33
1934.00	132.33
1935.00	131.67
1936.00	130.67
1937.00	128.67
1938.00	128.00
1939.00	128.33
1940.00	130.00
1941.00	131.00
1942.00	131.00
1943.00	130.33
1944.00	129.67
1945.00	129.33
1946.00	129.33
1947.00	129.33
1948.00	129.00
1949.00	129.67
1950.00	130.67
1951.00	131.67
1952.00	132.67
1953.00	133.00
1954.00	133.00
1955.00	132.00
1956.00	132.00
1957.00	132.33
1958.00	132.67
1959.00	132.33
1960.00	132.33
1961.00	132.33
1962.00	132.33
1963.00	132.00
1964.00	131.33
1965.00	131.00
1966.00	132.00
1967.00	133.33
1968.00	133.67
1969.00	132.33
1970.00	131.67
1971.00	133.33
1972.00	134.00
1973.00	133.00
1974.00	131.00
1975.00	129.67
1976.00	128.00
1977.00	126.67
1978.00	127.33
1979.00	129.67
1980.00	130.33
1981.00	129.67
1982.00	129.33
1983.00	130.67
1984.00	132.33
1985.00	133.33
1986.00	133.00
1987.00	132.33
1988.00	131.33
1989.00	130.67
1990.00	131.33
1991.00	131.33
1992.00	131.00
1993.00	130.00
1994.00	130.33
1995.00	131.33
1996.00	131.00
1997.00	131.33
1998.00	132.33
1999.00	132.33
2000.00	131.33
2001.00	130.67
2002.00	131.33
2003.00	131.67
2004.00	130.33
2005.00	130.67
2006.00	131.33
2007.00	132.00
2008.00	132.00
2009.00	132.33
2010.00	133.00
2011.00	133.00
2012.00	132.00
2013.00	131.00
2014.00	130.00
2015.00	130.33
2016.00	130.67
2017.00	131.00
2018.00	130.33
2019.00	129.33
2020.00	128.67
2021.00	129.00
2022.00	129.67
2023.00	129.67
2024.00	129.67
2025.00	129.33
2026.00	131.00
2027.00	132.67
2028.00	135.33
2029.00	135.67
2030.00	135.33
2031.00	134.33
2032.00	134.00
2033.00	133.00
2034.00	132.00
2035.00	130.67
2036.00	130.33
2037.00	129.67
2038.00	129.33
2039.00	130.33
2040.00	131.00
2041.00	131.67
2042.00	130.67
2043.00	130.33
2044.00	130.33
2045.00	130.67
2046.00	131.00
2047.00	131.00
>>>>>End Processed Spectral Data<<<<<
