SpectraSuite Data File
++++++++++++++++++++++++++++++++++++
Date: Fri Feb 17 17:44:33 PST 2017
User: admin
Dark Spectrum Present: No
Reference Spectrum Present: No
Number of Sampled Component Spectra: 1
Spectrometers: USB2G8485
Integration Time (usec): 100000 (USB2G8485)
Spectra Averaged: 1 (USB2G8485)
Boxcar Smoothing: 1 (USB2G8485)
Correct for Electrical Dark: No (USB2G8485)
Strobe/Lamp Enabled: No (USB2G8485)
Correct for Detector Non-linearity: No (USB2G8485)
Correct for Stray Light: No (USB2G8485)
Number of Pixels in Processed Spectrum: 2048
>>>>>Begin Processed Spectral Data<<<<<
0.00	0.00
1.00	79.67
2.00	119.67
3.00	120.33
4.00	122.00
5.00	125.00
6.00	127.33
7.00	129.33
8.00	129.00
9.00	128.67
10.00	128.33
11.00	129.00
12.00	129.33
13.00	129.33
14.00	129.67
15.00	129.67
16.00	130.33
17.00	131.67
18.00	133.00
19.00	132.00
20.00	130.00
21.00	128.67
22.00	129.00
23.00	130.00
24.00	131.00
25.00	132.33
26.00	134.33
27.00	134.67
28.00	134.67
29.00	133.00
30.00	134.00
31.00	134.33
32.00	134.33
33.00	133.67
34.00	134.00
35.00	135.67
36.00	135.67
37.00	134.33
38.00	132.67
39.00	133.00
40.00	133.00
41.00	133.00
42.00	132.33
43.00	132.67
44.00	133.33
45.00	134.00
46.00	134.33
47.00	133.67
48.00	132.67
49.00	131.33
50.00	130.67
51.00	130.67
52.00	132.67
53.00	134.67
54.00	137.33
55.00	137.67
56.00	136.67
57.00	134.67
58.00	133.67
59.00	134.67
60.00	136.00
61.00	137.00
62.00	136.00
63.00	136.00
64.00	135.00
65.00	134.67
66.00	133.00
67.00	132.67
68.00	132.67
69.00	134.00
70.00	134.67
71.00	134.33
72.00	134.00
73.00	133.67
74.00	134.67
75.00	135.33
76.00	136.33
77.00	136.00
78.00	135.67
79.00	134.67
80.00	134.67
81.00	133.67
82.00	133.33
83.00	133.67
84.00	136.00
85.00	139.33
86.00	140.33
87.00	138.67
88.00	136.33
89.00	135.67
90.00	136.67
91.00	135.67
92.00	135.00
93.00	135.00
94.00	137.33
95.00	138.33
96.00	137.00
97.00	135.67
98.00	135.33
99.00	136.00
100.00	136.00
101.00	135.67
102.00	135.00
103.00	134.33
104.00	133.67
105.00	135.00
106.00	136.33
107.00	138.67
108.00	139.33
109.00	141.67
110.00	142.33
111.00	141.67
112.00	141.00
113.00	145.67
114.00	156.33
115.00	163.00
116.00	163.33
117.00	158.00
118.00	153.33
119.00	151.67
120.00	150.33
121.00	150.33
122.00	150.33
123.00	150.33
124.00	153.67
125.00	158.67
126.00	170.67
127.00	187.00
128.00	216.00
129.00	325.33
130.00	746.33
131.00	1707.00
132.00	2900.67
133.00	3427.33
134.00	2816.00
135.00	1528.00
136.00	572.00
137.00	193.00
138.00	168.33
139.00	158.67
140.00	154.67
141.00	150.67
142.00	148.33
143.00	146.33
144.00	146.33
145.00	146.00
146.00	145.67
147.00	146.33
148.00	146.00
149.00	147.33
150.00	151.67
151.00	169.33
152.00	194.67
153.00	212.33
154.00	205.67
155.00	182.00
156.00	158.33
157.00	144.67
158.00	139.33
159.00	139.00
160.00	140.67
161.00	141.33
162.00	141.00
163.00	141.33
164.00	143.00
165.00	146.00
166.00	156.00
167.00	189.33
168.00	257.33
169.00	328.00
170.00	337.67
171.00	282.00
172.00	204.33
173.00	160.33
174.00	144.67
175.00	140.00
176.00	139.33
177.00	139.67
178.00	138.33
179.00	136.00
180.00	135.00
181.00	136.67
182.00	138.67
183.00	139.67
184.00	139.33
185.00	139.00
186.00	138.33
187.00	139.00
188.00	138.67
189.00	138.33
190.00	138.67
191.00	141.00
192.00	148.00
193.00	160.00
194.00	174.33
195.00	179.00
196.00	173.00
197.00	161.00
198.00	152.00
199.00	149.33
200.00	150.00
201.00	152.33
202.00	151.00
203.00	148.33
204.00	145.67
205.00	143.33
206.00	140.33
207.00	138.33
208.00	138.00
209.00	139.00
210.00	139.67
211.00	139.00
212.00	139.00
213.00	138.67
214.00	139.67
215.00	140.33
216.00	141.00
217.00	141.33
218.00	140.67
219.00	140.00
220.00	140.67
221.00	140.67
222.00	140.67
223.00	139.00
224.00	138.67
225.00	137.67
226.00	137.00
227.00	136.67
228.00	138.33
229.00	140.67
230.00	141.67
231.00	140.00
232.00	137.67
233.00	136.33
234.00	137.33
235.00	138.67
236.00	139.67
237.00	140.00
238.00	140.00
239.00	140.33
240.00	140.33
241.00	140.33
242.00	140.00
243.00	139.00
244.00	137.67
245.00	139.00
246.00	140.67
247.00	143.00
248.00	142.67
249.00	142.67
250.00	141.67
251.00	139.33
252.00	138.00
253.00	137.67
254.00	139.00
255.00	141.00
256.00	143.00
257.00	144.00
258.00	143.67
259.00	142.00
260.00	141.67
261.00	143.33
262.00	146.67
263.00	152.67
264.00	171.33
265.00	209.67
266.00	246.00
267.00	250.00
268.00	219.00
269.00	181.67
270.00	159.00
271.00	150.67
272.00	149.67
273.00	152.67
274.00	155.00
275.00	156.33
276.00	156.00
277.00	158.00
278.00	159.33
279.00	164.33
280.00	168.33
281.00	172.00
282.00	171.33
283.00	174.33
284.00	185.67
285.00	269.00
286.00	686.00
287.00	1689.67
288.00	2915.00
289.00	3645.67
290.00	3177.33
291.00	2019.67
292.00	884.67
293.00	339.33
294.00	187.00
295.00	167.33
296.00	160.00
297.00	157.33
298.00	152.67
299.00	149.67
300.00	146.00
301.00	147.00
302.00	147.00
303.00	145.33
304.00	144.00
305.00	142.33
306.00	141.67
307.00	140.00
308.00	141.67
309.00	143.33
310.00	143.67
311.00	143.33
312.00	143.00
313.00	142.67
314.00	141.00
315.00	139.67
316.00	139.00
317.00	138.33
318.00	138.67
319.00	140.67
320.00	142.00
321.00	143.00
322.00	142.33
323.00	141.67
324.00	140.00
325.00	139.00
326.00	139.00
327.00	138.67
328.00	140.67
329.00	140.67
330.00	140.33
331.00	138.33
332.00	141.00
333.00	143.00
334.00	143.33
335.00	142.33
336.00	145.00
337.00	148.33
338.00	149.67
339.00	149.00
340.00	147.33
341.00	145.00
342.00	144.67
343.00	145.00
344.00	148.00
345.00	149.67
346.00	150.00
347.00	149.00
348.00	147.67
349.00	149.33
350.00	153.00
351.00	207.33
352.00	389.67
353.00	734.33
354.00	1056.00
355.00	1129.33
356.00	883.00
357.00	535.33
358.00	284.33
359.00	183.33
360.00	155.33
361.00	147.33
362.00	145.67
363.00	145.00
364.00	145.00
365.00	143.67
366.00	143.00
367.00	143.33
368.00	143.33
369.00	142.33
370.00	142.00
371.00	143.67
372.00	144.67
373.00	144.67
374.00	142.33
375.00	141.67
376.00	142.67
377.00	143.33
378.00	142.33
379.00	141.33
380.00	141.00
381.00	141.33
382.00	141.33
383.00	143.00
384.00	145.67
385.00	146.67
386.00	146.33
387.00	144.67
388.00	145.33
389.00	145.33
390.00	144.33
391.00	144.00
392.00	145.33
393.00	147.00
394.00	145.00
395.00	142.67
396.00	143.00
397.00	146.00
398.00	148.67
399.00	149.67
400.00	148.67
401.00	148.67
402.00	149.33
403.00	151.67
404.00	151.00
405.00	149.33
406.00	150.00
407.00	159.00
408.00	256.00
409.00	565.33
410.00	1098.33
411.00	1595.33
412.00	1707.33
413.00	1376.33
414.00	867.00
415.00	461.67
416.00	257.33
417.00	175.33
418.00	158.67
419.00	154.33
420.00	152.67
421.00	152.67
422.00	152.33
423.00	154.00
424.00	157.00
425.00	158.00
426.00	158.67
427.00	156.00
428.00	154.67
429.00	154.00
430.00	155.00
431.00	160.33
432.00	170.67
433.00	242.33
434.00	676.67
435.00	1807.33
436.00	3048.33
437.00	3922.67
438.00	4046.33
439.00	3253.33
440.00	2138.67
441.00	928.33
442.00	428.33
443.00	263.33
444.00	283.67
445.00	357.00
446.00	410.67
447.00	383.00
448.00	309.67
449.00	230.33
450.00	183.33
451.00	161.00
452.00	148.67
453.00	144.33
454.00	147.00
455.00	151.67
456.00	153.33
457.00	149.00
458.00	144.33
459.00	143.00
460.00	142.00
461.00	142.33
462.00	143.00
463.00	145.33
464.00	145.00
465.00	145.00
466.00	143.33
467.00	142.33
468.00	140.67
469.00	140.00
470.00	140.00
471.00	140.33
472.00	140.67
473.00	141.00
474.00	140.67
475.00	141.00
476.00	142.00
477.00	141.67
478.00	139.67
479.00	138.67
480.00	139.67
481.00	141.00
482.00	141.00
483.00	141.33
484.00	141.00
485.00	141.33
486.00	139.33
487.00	139.00
488.00	138.33
489.00	138.33
490.00	139.00
491.00	138.33
492.00	139.33
493.00	139.33
494.00	140.00
495.00	140.00
496.00	139.67
497.00	141.00
498.00	142.67
499.00	145.33
500.00	147.33
501.00	147.00
502.00	146.00
503.00	144.67
504.00	145.33
505.00	145.00
506.00	144.67
507.00	144.00
508.00	143.67
509.00	143.00
510.00	142.67
511.00	141.33
512.00	140.33
513.00	139.33
514.00	140.00
515.00	139.67
516.00	139.67
517.00	139.00
518.00	138.00
519.00	137.33
520.00	137.67
521.00	139.33
522.00	141.00
523.00	142.67
524.00	144.00
525.00	144.00
526.00	141.67
527.00	139.00
528.00	137.33
529.00	137.33
530.00	138.67
531.00	138.00
532.00	137.33
533.00	135.33
534.00	134.67
535.00	135.33
536.00	137.00
537.00	138.33
538.00	138.00
539.00	137.67
540.00	139.00
541.00	139.67
542.00	140.67
543.00	140.33
544.00	141.33
545.00	141.00
546.00	140.33
547.00	140.33
548.00	140.33
549.00	140.67
550.00	141.67
551.00	142.67
552.00	141.67
553.00	140.00
554.00	138.67
555.00	139.00
556.00	138.67
557.00	139.33
558.00	140.00
559.00	140.33
560.00	140.00
561.00	140.00
562.00	140.67
563.00	140.33
564.00	139.00
565.00	137.00
566.00	136.00
567.00	137.00
568.00	139.67
569.00	142.00
570.00	142.67
571.00	142.33
572.00	142.67
573.00	143.33
574.00	143.00
575.00	142.00
576.00	141.67
577.00	142.67
578.00	143.00
579.00	142.00
580.00	140.67
581.00	140.67
582.00	141.67
583.00	142.33
584.00	143.33
585.00	144.67
586.00	146.67
587.00	147.67
588.00	148.00
589.00	146.67
590.00	145.67
591.00	145.67
592.00	147.33
593.00	149.00
594.00	150.67
595.00	151.33
596.00	151.67
597.00	151.00
598.00	150.33
599.00	150.00
600.00	151.33
601.00	152.67
602.00	153.00
603.00	152.33
604.00	150.67
605.00	150.00
606.00	151.67
607.00	152.67
608.00	153.33
609.00	151.33
610.00	151.33
611.00	152.00
612.00	151.00
613.00	150.33
614.00	149.33
615.00	149.67
616.00	148.67
617.00	148.33
618.00	148.00
619.00	150.00
620.00	150.33
621.00	150.33
622.00	150.67
623.00	152.00
624.00	155.33
625.00	156.00
626.00	159.00
627.00	160.67
628.00	167.33
629.00	172.00
630.00	178.00
631.00	179.00
632.00	180.00
633.00	178.33
634.00	179.67
635.00	178.33
636.00	177.67
637.00	176.00
638.00	178.00
639.00	181.33
640.00	184.00
641.00	186.00
642.00	189.00
643.00	193.33
644.00	197.00
645.00	200.00
646.00	199.67
647.00	197.33
648.00	194.67
649.00	193.33
650.00	194.67
651.00	194.33
652.00	194.33
653.00	194.33
654.00	193.33
655.00	191.00
656.00	187.33
657.00	187.33
658.00	188.00
659.00	191.00
660.00	191.33
661.00	197.67
662.00	223.00
663.00	276.67
664.00	336.33
665.00	371.00
666.00	360.00
667.00	331.67
668.00	314.33
669.00	325.67
670.00	360.67
671.00	443.67
672.00	859.00
673.00	2088.33
674.00	3263.00
675.00	4095.00
676.00	4095.00
677.00	4095.00
678.00	4095.00
679.00	4095.00
680.00	4095.00
681.00	4095.00
682.00	3445.67
683.00	2320.33
684.00	1109.33
685.00	508.67
686.00	367.67
687.00	300.67
688.00	262.00
689.00	231.00
690.00	209.33
691.00	195.67
692.00	189.67
693.00	183.67
694.00	179.00
695.00	174.00
696.00	169.00
697.00	165.67
698.00	164.33
699.00	166.33
700.00	165.00
701.00	163.67
702.00	161.33
703.00	164.00
704.00	164.33
705.00	163.67
706.00	163.00
707.00	161.67
708.00	161.00
709.00	158.00
710.00	156.33
711.00	154.33
712.00	152.00
713.00	151.33
714.00	151.33
715.00	152.00
716.00	152.00
717.00	152.00
718.00	150.33
719.00	150.00
720.00	148.33
721.00	148.00
722.00	146.00
723.00	145.67
724.00	145.00
725.00	144.67
726.00	144.67
727.00	145.00
728.00	144.33
729.00	143.00
730.00	143.33
731.00	145.00
732.00	145.67
733.00	145.33
734.00	146.00
735.00	147.33
736.00	148.33
737.00	146.33
738.00	144.67
739.00	143.67
740.00	146.67
741.00	149.00
742.00	148.67
743.00	146.33
744.00	144.00
745.00	142.33
746.00	141.67
747.00	143.00
748.00	145.67
749.00	146.00
750.00	144.33
751.00	145.00
752.00	145.33
753.00	147.33
754.00	147.33
755.00	151.00
756.00	154.33
757.00	156.00
758.00	155.00
759.00	152.00
760.00	149.33
761.00	146.00
762.00	143.33
763.00	142.67
764.00	143.67
765.00	146.00
766.00	146.00
767.00	146.00
768.00	144.67
769.00	146.00
770.00	146.33
771.00	146.33
772.00	143.67
773.00	142.33
774.00	142.00
775.00	143.00
776.00	143.33
777.00	143.33
778.00	143.67
779.00	143.00
780.00	145.33
781.00	146.00
782.00	147.00
783.00	145.67
784.00	146.67
785.00	146.67
786.00	145.67
787.00	143.00
788.00	142.00
789.00	141.67
790.00	141.00
791.00	141.00
792.00	141.00
793.00	141.67
794.00	142.67
795.00	143.33
796.00	146.00
797.00	147.00
798.00	146.33
799.00	144.33
800.00	143.00
801.00	143.00
802.00	142.00
803.00	141.67
804.00	142.33
805.00	144.33
806.00	144.67
807.00	143.33
808.00	142.00
809.00	142.67
810.00	144.67
811.00	145.33
812.00	146.00
813.00	146.33
814.00	147.67
815.00	147.00
816.00	145.67
817.00	145.33
818.00	146.00
819.00	148.00
820.00	147.33
821.00	146.33
822.00	145.67
823.00	146.67
824.00	149.33
825.00	151.33
826.00	151.00
827.00	148.67
828.00	145.33
829.00	144.33
830.00	143.33
831.00	144.00
832.00	143.33
833.00	143.33
834.00	142.33
835.00	142.33
836.00	142.00
837.00	141.67
838.00	142.33
839.00	142.67
840.00	144.00
841.00	143.33
842.00	144.67
843.00	144.33
844.00	144.33
845.00	142.67
846.00	142.67
847.00	144.00
848.00	144.00
849.00	144.00
850.00	144.00
851.00	143.67
852.00	143.33
853.00	143.00
854.00	142.33
855.00	141.33
856.00	139.00
857.00	138.67
858.00	138.33
859.00	139.00
860.00	141.00
861.00	142.33
862.00	145.33
863.00	146.67
864.00	148.00
865.00	148.00
866.00	146.67
867.00	146.67
868.00	149.00
869.00	151.00
870.00	150.33
871.00	147.00
872.00	146.00
873.00	147.00
874.00	147.33
875.00	146.33
876.00	145.33
877.00	147.00
878.00	150.33
879.00	152.33
880.00	152.33
881.00	152.00
882.00	151.00
883.00	149.00
884.00	148.67
885.00	151.67
886.00	154.00
887.00	154.00
888.00	152.00
889.00	150.00
890.00	150.33
891.00	150.33
892.00	153.00
893.00	154.00
894.00	160.33
895.00	171.67
896.00	183.33
897.00	187.33
898.00	183.00
899.00	178.00
900.00	177.33
901.00	185.33
902.00	283.33
903.00	1102.00
904.00	2400.33
905.00	3608.67
906.00	4095.00
907.00	4095.00
908.00	4095.00
909.00	4095.00
910.00	3955.67
911.00	3223.33
912.00	2206.00
913.00	1157.67
914.00	632.67
915.00	356.00
916.00	243.33
917.00	194.33
918.00	177.00
919.00	165.67
920.00	158.33
921.00	153.67
922.00	149.33
923.00	147.67
924.00	147.67
925.00	146.33
926.00	145.33
927.00	145.33
928.00	144.67
929.00	143.33
930.00	142.00
931.00	142.67
932.00	144.33
933.00	145.33
934.00	145.00
935.00	143.00
936.00	141.33
937.00	140.00
938.00	139.00
939.00	138.33
940.00	139.00
941.00	139.33
942.00	138.67
943.00	137.33
944.00	137.33
945.00	137.33
946.00	138.67
947.00	139.00
948.00	138.33
949.00	136.67
950.00	136.00
951.00	137.00
952.00	137.67
953.00	137.33
954.00	137.33
955.00	138.67
956.00	139.00
957.00	140.33
958.00	140.33
959.00	140.00
960.00	138.33
961.00	138.00
962.00	137.00
963.00	136.67
964.00	137.00
965.00	140.00
966.00	142.33
967.00	143.67
968.00	142.67
969.00	141.33
970.00	140.00
971.00	140.00
972.00	140.33
973.00	139.33
974.00	139.00
975.00	139.67
976.00	140.00
977.00	140.33
978.00	140.00
979.00	141.00
980.00	141.67
981.00	143.33
982.00	145.00
983.00	146.67
984.00	147.67
985.00	147.67
986.00	148.67
987.00	148.33
988.00	147.67
989.00	145.67
990.00	144.67
991.00	145.67
992.00	147.67
993.00	150.33
994.00	152.33
995.00	152.33
996.00	150.33
997.00	147.00
998.00	146.33
999.00	149.00
1000.00	152.00
1001.00	154.00
1002.00	153.67
1003.00	151.00
1004.00	150.33
1005.00	149.67
1006.00	152.00
1007.00	154.33
1008.00	164.33
1009.00	184.33
1010.00	205.00
1011.00	218.33
1012.00	216.33
1013.00	214.00
1014.00	215.33
1015.00	261.00
1016.00	790.67
1017.00	2080.33
1018.00	3331.00
1019.00	4095.00
1020.00	4095.00
1021.00	4095.00
1022.00	4095.00
1023.00	4095.00
1024.00	4095.00
1025.00	3943.00
1026.00	3137.67
1027.00	2056.00
1028.00	995.00
1029.00	531.67
1030.00	325.67
1031.00	239.00
1032.00	202.67
1033.00	182.00
1034.00	169.33
1035.00	159.33
1036.00	152.67
1037.00	149.33
1038.00	148.67
1039.00	147.00
1040.00	145.00
1041.00	143.33
1042.00	141.67
1043.00	141.00
1044.00	140.00
1045.00	140.00
1046.00	138.33
1047.00	137.33
1048.00	137.00
1049.00	138.67
1050.00	141.00
1051.00	142.00
1052.00	143.00
1053.00	142.67
1054.00	142.67
1055.00	141.67
1056.00	140.00
1057.00	139.00
1058.00	139.67
1059.00	140.00
1060.00	140.33
1061.00	139.67
1062.00	140.00
1063.00	139.67
1064.00	139.67
1065.00	140.67
1066.00	140.67
1067.00	139.67
1068.00	137.33
1069.00	136.33
1070.00	136.67
1071.00	137.67
1072.00	138.33
1073.00	138.00
1074.00	139.33
1075.00	141.67
1076.00	145.00
1077.00	145.67
1078.00	145.33
1079.00	146.00
1080.00	181.00
1081.00	393.00
1082.00	888.00
1083.00	1495.00
1084.00	1879.33
1085.00	1807.67
1086.00	1497.33
1087.00	1146.67
1088.00	889.00
1089.00	671.67
1090.00	496.00
1091.00	362.67
1092.00	263.00
1093.00	201.00
1094.00	168.67
1095.00	153.33
1096.00	144.00
1097.00	140.67
1098.00	138.67
1099.00	137.00
1100.00	135.33
1101.00	136.33
1102.00	137.67
1103.00	139.33
1104.00	137.33
1105.00	134.00
1106.00	131.67
1107.00	132.00
1108.00	134.33
1109.00	135.00
1110.00	136.33
1111.00	137.00
1112.00	137.67
1113.00	136.67
1114.00	134.67
1115.00	134.00
1116.00	133.33
1117.00	133.33
1118.00	133.33
1119.00	133.00
1120.00	132.67
1121.00	131.00
1122.00	130.67
1123.00	130.67
1124.00	132.33
1125.00	132.33
1126.00	132.67
1127.00	132.00
1128.00	133.33
1129.00	133.33
1130.00	133.67
1131.00	133.00
1132.00	133.67
1133.00	134.33
1134.00	134.67
1135.00	134.67
1136.00	134.00
1137.00	134.67
1138.00	136.00
1139.00	136.67
1140.00	135.67
1141.00	134.00
1142.00	133.67
1143.00	135.00
1144.00	136.67
1145.00	136.33
1146.00	134.00
1147.00	133.67
1148.00	134.67
1149.00	136.00
1150.00	135.33
1151.00	134.67
1152.00	134.00
1153.00	133.33
1154.00	133.33
1155.00	134.00
1156.00	133.67
1157.00	134.67
1158.00	136.00
1159.00	136.67
1160.00	135.00
1161.00	132.00
1162.00	130.67
1163.00	131.33
1164.00	132.67
1165.00	134.00
1166.00	134.00
1167.00	134.67
1168.00	135.00
1169.00	135.33
1170.00	135.00
1171.00	134.33
1172.00	133.33
1173.00	133.00
1174.00	132.67
1175.00	132.00
1176.00	131.67
1177.00	132.33
1178.00	133.00
1179.00	132.33
1180.00	132.33
1181.00	132.67
1182.00	132.33
1183.00	130.33
1184.00	130.00
1185.00	132.00
1186.00	134.00
1187.00	134.00
1188.00	132.67
1189.00	132.67
1190.00	134.67
1191.00	135.67
1192.00	136.33
1193.00	135.33
1194.00	134.33
1195.00	133.67
1196.00	133.33
1197.00	133.67
1198.00	132.33
1199.00	130.67
1200.00	130.67
1201.00	131.67
1202.00	132.67
1203.00	133.33
1204.00	133.67
1205.00	134.67
1206.00	134.33
1207.00	134.33
1208.00	133.00
1209.00	131.33
1210.00	129.67
1211.00	129.33
1212.00	130.33
1213.00	131.67
1214.00	132.33
1215.00	132.33
1216.00	132.67
1217.00	133.33
1218.00	134.00
1219.00	133.00
1220.00	132.33
1221.00	132.00
1222.00	132.33
1223.00	133.00
1224.00	133.33
1225.00	133.33
1226.00	131.67
1227.00	132.00
1228.00	132.67
1229.00	139.33
1230.00	165.00
1231.00	208.00
1232.00	250.33
1233.00	265.00
1234.00	254.67
1235.00	234.00
1236.00	210.33
1237.00	190.33
1238.00	172.67
1239.00	162.33
1240.00	155.67
1241.00	150.00
1242.00	144.00
1243.00	138.67
1244.00	136.00
1245.00	135.33
1246.00	134.33
1247.00	133.00
1248.00	131.67
1249.00	131.33
1250.00	131.67
1251.00	132.33
1252.00	132.33
1253.00	131.67
1254.00	131.33
1255.00	130.67
1256.00	131.00
1257.00	131.67
1258.00	132.33
1259.00	132.67
1260.00	133.33
1261.00	133.33
1262.00	132.00
1263.00	130.67
1264.00	130.67
1265.00	131.00
1266.00	131.00
1267.00	131.00
1268.00	130.67
1269.00	130.00
1270.00	131.67
1271.00	133.33
1272.00	135.00
1273.00	133.67
1274.00	132.33
1275.00	131.33
1276.00	130.33
1277.00	130.67
1278.00	130.33
1279.00	131.00
1280.00	130.33
1281.00	129.67
1282.00	129.00
1283.00	130.00
1284.00	131.67
1285.00	132.33
1286.00	133.33
1287.00	133.00
1288.00	133.33
1289.00	132.67
1290.00	132.33
1291.00	132.33
1292.00	132.00
1293.00	132.00
1294.00	132.67
1295.00	133.00
1296.00	133.33
1297.00	132.00
1298.00	131.00
1299.00	130.67
1300.00	130.67
1301.00	130.33
1302.00	130.00
1303.00	131.00
1304.00	132.67
1305.00	133.67
1306.00	133.00
1307.00	131.33
1308.00	130.67
1309.00	130.67
1310.00	131.67
1311.00	132.67
1312.00	133.33
1313.00	134.00
1314.00	134.00
1315.00	133.67
1316.00	133.33
1317.00	131.33
1318.00	130.67
1319.00	130.00
1320.00	132.00
1321.00	133.33
1322.00	134.00
1323.00	134.00
1324.00	132.67
1325.00	132.00
1326.00	131.33
1327.00	131.33
1328.00	131.00
1329.00	131.00
1330.00	131.33
1331.00	131.00
1332.00	130.00
1333.00	129.33
1334.00	130.67
1335.00	131.67
1336.00	131.00
1337.00	128.67
1338.00	127.67
1339.00	129.00
1340.00	131.00
1341.00	132.67
1342.00	134.00
1343.00	134.67
1344.00	134.67
1345.00	133.33
1346.00	133.33
1347.00	132.67
1348.00	133.00
1349.00	132.00
1350.00	131.33
1351.00	131.33
1352.00	132.00
1353.00	133.33
1354.00	134.00
1355.00	134.33
1356.00	134.33
1357.00	132.67
1358.00	131.00
1359.00	129.67
1360.00	130.00
1361.00	130.67
1362.00	131.67
1363.00	132.00
1364.00	132.33
1365.00	131.00
1366.00	129.67
1367.00	129.33
1368.00	130.00
1369.00	131.33
1370.00	132.00
1371.00	132.67
1372.00	133.67
1373.00	134.00
1374.00	135.33
1375.00	134.67
1376.00	133.67
1377.00	132.33
1378.00	132.67
1379.00	132.67
1380.00	132.00
1381.00	130.67
1382.00	131.00
1383.00	131.00
1384.00	132.33
1385.00	133.00
1386.00	134.00
1387.00	133.33
1388.00	132.33
1389.00	131.33
1390.00	130.33
1391.00	129.67
1392.00	129.33
1393.00	130.00
1394.00	130.67
1395.00	132.67
1396.00	133.00
1397.00	133.33
1398.00	131.67
1399.00	132.33
1400.00	132.33
1401.00	133.67
1402.00	133.67
1403.00	134.00
1404.00	134.33
1405.00	135.33
1406.00	136.33
1407.00	135.33
1408.00	133.33
1409.00	131.67
1410.00	131.33
1411.00	130.67
1412.00	130.00
1413.00	132.67
1414.00	135.00
1415.00	136.67
1416.00	133.67
1417.00	132.67
1418.00	132.33
1419.00	132.00
1420.00	130.67
1421.00	128.67
1422.00	129.00
1423.00	131.33
1424.00	134.00
1425.00	134.00
1426.00	132.00
1427.00	130.67
1428.00	131.33
1429.00	132.33
1430.00	133.00
1431.00	133.67
1432.00	133.67
1433.00	133.67
1434.00	133.33
1435.00	133.33
1436.00	134.00
1437.00	133.33
1438.00	133.33
1439.00	134.33
1440.00	138.67
1441.00	144.00
1442.00	148.67
1443.00	150.33
1444.00	149.00
1445.00	144.00
1446.00	139.33
1447.00	137.00
1448.00	136.33
1449.00	137.00
1450.00	136.67
1451.00	137.33
1452.00	136.00
1453.00	134.00
1454.00	133.00
1455.00	132.67
1456.00	133.67
1457.00	135.00
1458.00	136.00
1459.00	135.67
1460.00	133.67
1461.00	131.67
1462.00	130.67
1463.00	130.00
1464.00	130.00
1465.00	129.67
1466.00	130.33
1467.00	131.67
1468.00	133.00
1469.00	131.67
1470.00	130.33
1471.00	130.00
1472.00	131.33
1473.00	131.00
1474.00	130.33
1475.00	129.67
1476.00	130.67
1477.00	130.67
1478.00	131.33
1479.00	130.67
1480.00	130.67
1481.00	128.67
1482.00	128.67
1483.00	130.00
1484.00	132.67
1485.00	133.33
1486.00	133.33
1487.00	132.33
1488.00	132.33
1489.00	131.33
1490.00	131.67
1491.00	132.00
1492.00	132.00
1493.00	131.67
1494.00	131.67
1495.00	133.00
1496.00	134.33
1497.00	134.67
1498.00	133.33
1499.00	132.33
1500.00	131.67
1501.00	132.33
1502.00	132.33
1503.00	132.33
1504.00	131.33
1505.00	130.67
1506.00	130.33
1507.00	130.67
1508.00	131.67
1509.00	132.00
1510.00	132.33
1511.00	132.67
1512.00	132.67
1513.00	132.33
1514.00	131.33
1515.00	131.33
1516.00	132.33
1517.00	133.33
1518.00	132.67
1519.00	130.67
1520.00	129.33
1521.00	129.33
1522.00	131.00
1523.00	132.33
1524.00	132.33
1525.00	131.33
1526.00	130.00
1527.00	129.33
1528.00	130.33
1529.00	131.33
1530.00	132.33
1531.00	131.33
1532.00	130.33
1533.00	130.33
1534.00	131.67
1535.00	133.00
1536.00	133.33
1537.00	133.33
1538.00	133.33
1539.00	134.00
1540.00	133.67
1541.00	133.67
1542.00	133.67
1543.00	133.33
1544.00	131.67
1545.00	129.33
1546.00	128.67
1547.00	128.33
1548.00	129.33
1549.00	130.33
1550.00	132.00
1551.00	132.33
1552.00	131.33
1553.00	130.67
1554.00	131.00
1555.00	131.67
1556.00	132.33
1557.00	132.00
1558.00	133.00
1559.00	132.67
1560.00	133.33
1561.00	132.33
1562.00	132.67
1563.00	131.67
1564.00	130.33
1565.00	129.67
1566.00	130.67
1567.00	131.33
1568.00	131.00
1569.00	130.00
1570.00	130.67
1571.00	132.00
1572.00	132.67
1573.00	132.67
1574.00	131.33
1575.00	132.00
1576.00	133.00
1577.00	134.00
1578.00	133.67
1579.00	132.67
1580.00	132.00
1581.00	131.67
1582.00	132.33
1583.00	132.67
1584.00	132.67
1585.00	132.33
1586.00	133.33
1587.00	133.67
1588.00	133.33
1589.00	132.33
1590.00	132.33
1591.00	132.00
1592.00	134.33
1593.00	135.00
1594.00	136.33
1595.00	133.67
1596.00	133.00
1597.00	132.33
1598.00	133.67
1599.00	134.33
1600.00	134.33
1601.00	133.00
1602.00	133.00
1603.00	133.00
1604.00	132.67
1605.00	131.33
1606.00	131.33
1607.00	133.00
1608.00	133.33
1609.00	133.00
1610.00	131.67
1611.00	132.33
1612.00	133.00
1613.00	133.00
1614.00	132.67
1615.00	131.33
1616.00	130.67
1617.00	130.00
1618.00	130.00
1619.00	131.67
1620.00	132.33
1621.00	132.67
1622.00	133.00
1623.00	133.33
1624.00	133.67
1625.00	133.67
1626.00	133.00
1627.00	132.67
1628.00	132.33
1629.00	133.33
1630.00	134.67
1631.00	134.33
1632.00	133.33
1633.00	132.33
1634.00	132.67
1635.00	133.67
1636.00	135.00
1637.00	135.00
1638.00	134.33
1639.00	134.67
1640.00	135.00
1641.00	134.67
1642.00	132.33
1643.00	131.33
1644.00	132.00
1645.00	133.00
1646.00	133.00
1647.00	132.67
1648.00	133.00
1649.00	132.33
1650.00	132.67
1651.00	132.00
1652.00	133.00
1653.00	133.00
1654.00	133.33
1655.00	133.33
1656.00	133.33
1657.00	133.67
1658.00	134.67
1659.00	134.67
1660.00	134.00
1661.00	133.67
1662.00	133.00
1663.00	133.00
1664.00	131.33
1665.00	130.00
1666.00	129.00
1667.00	129.67
1668.00	132.00
1669.00	132.67
1670.00	133.33
1671.00	132.67
1672.00	132.67
1673.00	131.67
1674.00	131.00
1675.00	131.00
1676.00	131.67
1677.00	132.33
1678.00	132.33
1679.00	131.67
1680.00	130.33
1681.00	131.00
1682.00	130.67
1683.00	131.67
1684.00	131.33
1685.00	131.67
1686.00	132.67
1687.00	133.33
1688.00	133.33
1689.00	133.33
1690.00	133.33
1691.00	133.67
1692.00	133.00
1693.00	132.33
1694.00	132.33
1695.00	131.67
1696.00	131.00
1697.00	129.67
1698.00	129.67
1699.00	130.33
1700.00	131.33
1701.00	131.33
1702.00	131.33
1703.00	132.00
1704.00	133.00
1705.00	133.67
1706.00	134.00
1707.00	134.33
1708.00	135.00
1709.00	134.33
1710.00	133.33
1711.00	132.00
1712.00	132.00
1713.00	132.00
1714.00	132.67
1715.00	133.33
1716.00	134.67
1717.00	133.33
1718.00	132.33
1719.00	132.00
1720.00	133.00
1721.00	133.33
1722.00	132.00
1723.00	132.67
1724.00	133.33
1725.00	133.33
1726.00	132.67
1727.00	131.67
1728.00	132.33
1729.00	132.00
1730.00	131.67
1731.00	130.67
1732.00	130.67
1733.00	132.33
1734.00	133.00
1735.00	132.33
1736.00	130.67
1737.00	130.00
1738.00	130.00
1739.00	132.67
1740.00	133.67
1741.00	134.33
1742.00	131.67
1743.00	131.33
1744.00	131.33
1745.00	132.67
1746.00	132.67
1747.00	132.67
1748.00	131.67
1749.00	131.33
1750.00	131.00
1751.00	130.67
1752.00	129.67
1753.00	129.00
1754.00	129.33
1755.00	131.33
1756.00	132.00
1757.00	132.33
1758.00	131.67
1759.00	131.33
1760.00	130.33
1761.00	129.67
1762.00	131.33
1763.00	133.00
1764.00	133.33
1765.00	131.67
1766.00	130.67
1767.00	131.33
1768.00	132.00
1769.00	132.67
1770.00	133.67
1771.00	133.33
1772.00	132.67
1773.00	130.00
1774.00	129.00
1775.00	128.00
1776.00	128.67
1777.00	131.00
1778.00	132.00
1779.00	132.00
1780.00	131.00
1781.00	131.00
1782.00	131.67
1783.00	131.67
1784.00	131.33
1785.00	130.67
1786.00	130.00
1787.00	130.00
1788.00	130.00
1789.00	130.00
1790.00	131.33
1791.00	132.33
1792.00	134.00
1793.00	135.00
1794.00	136.33
1795.00	136.33
1796.00	135.33
1797.00	133.67
1798.00	132.67
1799.00	132.67
1800.00	133.67
1801.00	133.33
1802.00	133.00
1803.00	132.67
1804.00	135.00
1805.00	136.00
1806.00	137.00
1807.00	135.33
1808.00	134.67
1809.00	133.67
1810.00	133.00
1811.00	133.00
1812.00	133.00
1813.00	133.00
1814.00	132.67
1815.00	132.00
1816.00	132.00
1817.00	131.67
1818.00	131.67
1819.00	130.33
1820.00	129.33
1821.00	129.33
1822.00	131.33
1823.00	132.33
1824.00	133.33
1825.00	134.67
1826.00	135.67
1827.00	134.67
1828.00	133.00
1829.00	133.67
1830.00	134.00
1831.00	133.67
1832.00	131.67
1833.00	131.00
1834.00	131.33
1835.00	130.67
1836.00	130.33
1837.00	131.00
1838.00	132.67
1839.00	132.67
1840.00	132.00
1841.00	131.67
1842.00	132.00
1843.00	131.00
1844.00	130.00
1845.00	129.67
1846.00	131.00
1847.00	131.67
1848.00	133.33
1849.00	135.67
1850.00	136.67
1851.00	137.33
1852.00	137.33
1853.00	137.67
1854.00	137.00
1855.00	134.33
1856.00	132.67
1857.00	130.67
1858.00	129.33
1859.00	129.33
1860.00	129.33
1861.00	130.67
1862.00	133.00
1863.00	134.33
1864.00	135.00
1865.00	134.33
1866.00	134.67
1867.00	135.00
1868.00	133.67
1869.00	132.33
1870.00	130.67
1871.00	130.33
1872.00	131.00
1873.00	132.00
1874.00	132.00
1875.00	131.67
1876.00	132.00
1877.00	132.33
1878.00	132.33
1879.00	132.00
1880.00	132.33
1881.00	132.33
1882.00	132.67
1883.00	132.33
1884.00	131.33
1885.00	129.67
1886.00	128.00
1887.00	128.67
1888.00	129.67
1889.00	131.33
1890.00	131.00
1891.00	130.00
1892.00	129.00
1893.00	128.67
1894.00	128.67
1895.00	129.67
1896.00	130.33
1897.00	130.67
1898.00	129.33
1899.00	129.00
1900.00	130.00
1901.00	131.67
1902.00	132.00
1903.00	130.67
1904.00	129.67
1905.00	129.67
1906.00	129.67
1907.00	131.67
1908.00	133.67
1909.00	135.00
1910.00	133.33
1911.00	132.00
1912.00	131.67
1913.00	132.33
1914.00	131.33
1915.00	130.33
1916.00	129.33
1917.00	130.67
1918.00	132.00
1919.00	132.67
1920.00	133.00
1921.00	132.67
1922.00	132.33
1923.00	131.00
1924.00	130.33
1925.00	130.00
1926.00	129.67
1927.00	129.67
1928.00	130.67
1929.00	132.00
1930.00	132.00
1931.00	131.67
1932.00	131.33
1933.00	131.67
1934.00	131.67
1935.00	132.00
1936.00	133.33
1937.00	133.33
1938.00	132.33
1939.00	131.33
1940.00	131.00
1941.00	131.67
1942.00	131.00
1943.00	131.00
1944.00	131.33
1945.00	131.33
1946.00	130.33
1947.00	128.67
1948.00	129.33
1949.00	131.33
1950.00	133.33
1951.00	133.33
1952.00	133.00
1953.00	132.67
1954.00	132.00
1955.00	131.67
1956.00	132.00
1957.00	132.67
1958.00	132.67
1959.00	131.00
1960.00	130.33
1961.00	130.33
1962.00	131.33
1963.00	133.67
1964.00	135.33
1965.00	135.67
1966.00	136.00
1967.00	134.33
1968.00	133.33
1969.00	130.67
1970.00	130.00
1971.00	131.00
1972.00	131.67
1973.00	133.33
1974.00	133.00
1975.00	132.67
1976.00	131.67
1977.00	131.67
1978.00	132.00
1979.00	132.00
1980.00	131.67
1981.00	131.33
1982.00	130.33
1983.00	130.33
1984.00	130.67
1985.00	131.00
1986.00	131.33
1987.00	131.33
1988.00	132.00
1989.00	132.00
1990.00	132.00
1991.00	131.00
1992.00	131.00
1993.00	132.33
1994.00	134.33
1995.00	134.00
1996.00	131.00
1997.00	128.67
1998.00	128.00
1999.00	129.00
2000.00	129.33
2001.00	130.00
2002.00	131.00
2003.00	133.33
2004.00	134.33
2005.00	133.33
2006.00	130.67
2007.00	130.00
2008.00	131.67
2009.00	133.67
2010.00	135.00
2011.00	134.67
2012.00	133.67
2013.00	131.67
2014.00	131.00
2015.00	132.00
2016.00	133.00
2017.00	132.67
2018.00	132.00
2019.00	131.33
2020.00	130.33
2021.00	130.33
2022.00	131.00
2023.00	133.00
2024.00	133.33
2025.00	133.33
2026.00	132.67
2027.00	134.33
2028.00	136.33
2029.00	136.33
2030.00	133.33
2031.00	129.67
2032.00	129.00
2033.00	129.67
2034.00	131.00
2035.00	131.67
2036.00	131.67
2037.00	130.67
2038.00	130.00
2039.00	130.67
2040.00	132.00
2041.00	132.00
2042.00	131.33
2043.00	130.67
2044.00	130.67
2045.00	130.33
2046.00	130.33
2047.00	131.00
>>>>>End Processed Spectral Data<<<<<
