SpectraSuite Data File
++++++++++++++++++++++++++++++++++++
Date: Fri Feb 17 17:45:10 PST 2017
User: admin
Dark Spectrum Present: No
Reference Spectrum Present: No
Number of Sampled Component Spectra: 1
Spectrometers: USB2G8485
Integration Time (usec): 100000 (USB2G8485)
Spectra Averaged: 1 (USB2G8485)
Boxcar Smoothing: 1 (USB2G8485)
Correct for Electrical Dark: No (USB2G8485)
Strobe/Lamp Enabled: No (USB2G8485)
Correct for Detector Non-linearity: No (USB2G8485)
Correct for Stray Light: No (USB2G8485)
Number of Pixels in Processed Spectrum: 2048
>>>>>Begin Processed Spectral Data<<<<<
0.00	0.00
1.00	80.67
2.00	121.33
3.00	122.67
4.00	125.00
5.00	126.67
6.00	127.67
7.00	129.00
8.00	130.00
9.00	132.00
10.00	132.33
11.00	132.33
12.00	130.67
13.00	129.00
14.00	129.67
15.00	131.00
16.00	131.67
17.00	131.33
18.00	130.67
19.00	131.00
20.00	131.33
21.00	131.67
22.00	131.67
23.00	131.67
24.00	132.33
25.00	132.67
26.00	134.67
27.00	134.67
28.00	135.33
29.00	134.00
30.00	134.33
31.00	134.67
32.00	134.00
33.00	133.33
34.00	132.33
35.00	132.00
36.00	131.00
37.00	131.00
38.00	131.00
39.00	132.33
40.00	134.00
41.00	135.33
42.00	134.67
43.00	133.00
44.00	132.33
45.00	131.67
46.00	131.33
47.00	131.33
48.00	132.33
49.00	133.00
50.00	133.67
51.00	133.33
52.00	134.00
53.00	134.00
54.00	136.00
55.00	135.67
56.00	135.00
57.00	134.33
58.00	134.67
59.00	135.33
60.00	134.00
61.00	133.33
62.00	133.00
63.00	135.00
64.00	136.33
65.00	137.33
66.00	135.33
67.00	133.67
68.00	132.33
69.00	133.00
70.00	134.33
71.00	134.00
72.00	135.00
73.00	135.00
74.00	135.33
75.00	134.33
76.00	135.00
77.00	136.33
78.00	136.67
79.00	136.67
80.00	136.67
81.00	137.33
82.00	137.33
83.00	138.00
84.00	138.33
85.00	138.33
86.00	137.33
87.00	138.67
88.00	140.00
89.00	141.33
90.00	140.33
91.00	138.33
92.00	137.33
93.00	136.67
94.00	139.33
95.00	139.33
96.00	138.67
97.00	136.00
98.00	137.33
99.00	139.00
100.00	138.67
101.00	137.33
102.00	136.00
103.00	136.33
104.00	136.67
105.00	138.33
106.00	140.00
107.00	141.33
108.00	141.00
109.00	141.33
110.00	139.33
111.00	138.67
112.00	139.00
113.00	146.33
114.00	156.33
115.00	163.00
116.00	162.33
117.00	158.00
118.00	154.33
119.00	151.67
120.00	150.00
121.00	146.67
122.00	145.67
123.00	146.00
124.00	151.00
125.00	159.00
126.00	171.00
127.00	186.33
128.00	212.67
129.00	322.33
130.00	744.67
131.00	1709.00
132.00	2902.00
133.00	3439.67
134.00	2833.00
135.00	1546.33
136.00	579.33
137.00	194.33
138.00	168.33
139.00	158.67
140.00	155.00
141.00	153.00
142.00	151.67
143.00	148.33
144.00	146.33
145.00	145.67
146.00	145.33
147.00	145.00
148.00	144.67
149.00	146.00
150.00	150.67
151.00	165.00
152.00	188.33
153.00	209.67
154.00	206.00
155.00	185.00
156.00	158.00
157.00	145.00
158.00	139.67
159.00	139.00
160.00	139.00
161.00	139.67
162.00	140.00
163.00	141.00
164.00	143.67
165.00	147.00
166.00	156.67
167.00	188.67
168.00	260.33
169.00	330.67
170.00	343.67
171.00	283.00
172.00	205.67
173.00	157.67
174.00	142.67
175.00	139.00
176.00	137.67
177.00	136.67
178.00	136.33
179.00	137.00
180.00	137.33
181.00	136.33
182.00	137.00
183.00	138.00
184.00	139.33
185.00	138.67
186.00	138.00
187.00	137.67
188.00	137.33
189.00	138.00
190.00	137.67
191.00	139.00
192.00	142.33
193.00	156.33
194.00	173.00
195.00	186.33
196.00	181.33
197.00	169.00
198.00	154.33
199.00	149.67
200.00	149.67
201.00	152.33
202.00	152.00
203.00	148.00
204.00	143.33
205.00	139.67
206.00	138.67
207.00	139.00
208.00	140.67
209.00	140.67
210.00	140.33
211.00	140.33
212.00	140.00
213.00	139.67
214.00	139.33
215.00	140.67
216.00	142.00
217.00	141.00
218.00	139.67
219.00	139.67
220.00	140.33
221.00	140.67
222.00	139.00
223.00	137.33
224.00	138.67
225.00	140.00
226.00	140.33
227.00	138.33
228.00	137.33
229.00	139.67
230.00	140.33
231.00	139.67
232.00	137.67
233.00	138.00
234.00	140.33
235.00	141.00
236.00	141.33
237.00	140.33
238.00	140.00
239.00	140.67
240.00	141.33
241.00	142.00
242.00	140.67
243.00	138.67
244.00	137.00
245.00	138.67
246.00	140.67
247.00	143.00
248.00	142.00
249.00	141.33
250.00	141.00
251.00	141.33
252.00	142.00
253.00	141.33
254.00	141.00
255.00	140.00
256.00	140.00
257.00	140.00
258.00	140.33
259.00	140.67
260.00	141.33
261.00	143.67
262.00	145.67
263.00	151.33
264.00	169.00
265.00	206.00
266.00	244.67
267.00	250.00
268.00	221.33
269.00	179.33
270.00	154.67
271.00	145.67
272.00	144.67
273.00	150.00
274.00	154.00
275.00	155.67
276.00	154.67
277.00	155.33
278.00	160.00
279.00	166.67
280.00	171.00
281.00	171.67
282.00	170.67
283.00	174.67
284.00	188.67
285.00	273.00
286.00	689.67
287.00	1706.33
288.00	2929.67
289.00	3693.33
290.00	3214.00
291.00	2060.33
292.00	895.00
293.00	349.00
294.00	193.67
295.00	172.00
296.00	164.00
297.00	160.33
298.00	157.67
299.00	153.67
300.00	149.33
301.00	147.00
302.00	146.33
303.00	146.67
304.00	145.00
305.00	143.67
306.00	143.33
307.00	144.33
308.00	146.00
309.00	145.33
310.00	143.00
311.00	141.00
312.00	139.67
313.00	139.00
314.00	139.67
315.00	142.00
316.00	143.00
317.00	142.33
318.00	141.33
319.00	142.67
320.00	143.67
321.00	144.33
322.00	142.67
323.00	142.67
324.00	142.00
325.00	142.33
326.00	141.00
327.00	140.00
328.00	142.00
329.00	143.67
330.00	145.00
331.00	142.67
332.00	142.00
333.00	141.33
334.00	141.33
335.00	142.00
336.00	144.33
337.00	147.33
338.00	148.33
339.00	148.67
340.00	147.67
341.00	146.33
342.00	146.00
343.00	147.33
344.00	148.67
345.00	148.33
346.00	146.67
347.00	145.00
348.00	147.00
349.00	150.67
350.00	157.67
351.00	208.00
352.00	382.33
353.00	723.67
354.00	1046.67
355.00	1127.33
356.00	886.33
357.00	541.33
358.00	291.00
359.00	187.67
360.00	157.67
361.00	151.00
362.00	149.00
363.00	150.33
364.00	148.33
365.00	146.00
366.00	143.67
367.00	143.67
368.00	144.33
369.00	144.00
370.00	144.00
371.00	144.00
372.00	143.00
373.00	143.00
374.00	142.67
375.00	143.33
376.00	143.00
377.00	142.33
378.00	142.67
379.00	142.00
380.00	143.00
381.00	143.33
382.00	143.00
383.00	142.67
384.00	142.33
385.00	143.00
386.00	142.67
387.00	143.67
388.00	145.67
389.00	148.00
390.00	148.33
391.00	148.33
392.00	147.33
393.00	146.00
394.00	144.67
395.00	143.67
396.00	144.00
397.00	144.67
398.00	146.33
399.00	146.33
400.00	146.00
401.00	145.33
402.00	147.33
403.00	148.33
404.00	149.33
405.00	148.67
406.00	151.33
407.00	163.00
408.00	260.00
409.00	567.67
410.00	1111.33
411.00	1604.00
412.00	1719.67
413.00	1378.33
414.00	872.00
415.00	465.33
416.00	257.67
417.00	176.67
418.00	159.00
419.00	153.33
420.00	150.67
421.00	151.00
422.00	153.67
423.00	159.00
424.00	161.00
425.00	163.00
426.00	161.33
427.00	158.33
428.00	153.67
429.00	152.33
430.00	155.33
431.00	161.00
432.00	170.00
433.00	245.33
434.00	677.67
435.00	1824.33
436.00	3060.67
437.00	3937.33
438.00	4092.00
439.00	3306.67
440.00	2191.67
441.00	931.00
442.00	424.00
443.00	263.00
444.00	286.33
445.00	359.33
446.00	410.33
447.00	388.00
448.00	315.33
449.00	238.00
450.00	189.00
451.00	166.67
452.00	153.00
453.00	148.67
454.00	148.33
455.00	148.67
456.00	148.33
457.00	146.00
458.00	145.33
459.00	144.00
460.00	143.33
461.00	141.00
462.00	140.67
463.00	142.67
464.00	145.33
465.00	145.33
466.00	141.67
467.00	139.00
468.00	139.00
469.00	139.00
470.00	139.00
471.00	139.33
472.00	141.67
473.00	143.00
474.00	142.67
475.00	142.33
476.00	141.67
477.00	141.67
478.00	139.67
479.00	139.67
480.00	139.67
481.00	141.00
482.00	141.00
483.00	141.00
484.00	140.33
485.00	140.00
486.00	140.00
487.00	141.33
488.00	139.67
489.00	136.67
490.00	134.33
491.00	136.33
492.00	140.67
493.00	143.33
494.00	144.67
495.00	145.33
496.00	145.67
497.00	145.67
498.00	144.33
499.00	143.33
500.00	143.00
501.00	144.00
502.00	145.67
503.00	146.33
504.00	145.67
505.00	146.00
506.00	145.67
507.00	146.00
508.00	144.67
509.00	143.67
510.00	142.00
511.00	140.67
512.00	140.00
513.00	140.33
514.00	140.33
515.00	140.67
516.00	140.67
517.00	140.67
518.00	140.33
519.00	139.33
520.00	138.67
521.00	137.67
522.00	138.67
523.00	140.67
524.00	144.33
525.00	146.00
526.00	145.00
527.00	141.67
528.00	139.67
529.00	141.00
530.00	141.67
531.00	141.33
532.00	139.00
533.00	138.67
534.00	139.00
535.00	140.67
536.00	141.33
537.00	141.67
538.00	140.00
539.00	137.33
540.00	135.67
541.00	135.67
542.00	137.67
543.00	139.33
544.00	139.67
545.00	139.33
546.00	139.33
547.00	140.33
548.00	142.00
549.00	142.33
550.00	142.33
551.00	142.33
552.00	141.33
553.00	141.67
554.00	140.67
555.00	142.00
556.00	142.00
557.00	143.00
558.00	142.00
559.00	140.00
560.00	139.33
561.00	139.67
562.00	140.67
563.00	140.33
564.00	141.67
565.00	142.67
566.00	142.33
567.00	141.33
568.00	140.33
569.00	140.67
570.00	141.67
571.00	142.33
572.00	142.33
573.00	141.00
574.00	140.33
575.00	141.33
576.00	143.00
577.00	144.67
578.00	144.67
579.00	143.33
580.00	143.33
581.00	143.00
582.00	142.67
583.00	142.67
584.00	144.67
585.00	146.33
586.00	148.00
587.00	146.67
588.00	146.00
589.00	145.00
590.00	146.67
591.00	150.00
592.00	151.33
593.00	152.33
594.00	151.67
595.00	154.00
596.00	156.00
597.00	155.67
598.00	153.33
599.00	151.00
600.00	151.00
601.00	150.67
602.00	150.00
603.00	149.67
604.00	150.67
605.00	152.00
606.00	152.67
607.00	152.33
608.00	150.67
609.00	150.00
610.00	149.67
611.00	150.33
612.00	150.00
613.00	150.00
614.00	149.33
615.00	149.33
616.00	149.00
617.00	149.33
618.00	148.33
619.00	147.00
620.00	147.67
621.00	150.33
622.00	152.67
623.00	154.00
624.00	154.67
625.00	158.00
626.00	161.33
627.00	166.33
628.00	169.33
629.00	176.33
630.00	181.33
631.00	183.33
632.00	180.67
633.00	178.00
634.00	180.00
635.00	181.67
636.00	182.33
637.00	180.00
638.00	177.33
639.00	177.00
640.00	178.33
641.00	181.33
642.00	186.33
643.00	194.67
644.00	199.67
645.00	201.00
646.00	198.67
647.00	195.67
648.00	194.00
649.00	194.33
650.00	195.33
651.00	198.00
652.00	196.33
653.00	196.67
654.00	193.33
655.00	192.00
656.00	191.33
657.00	190.00
658.00	189.33
659.00	188.33
660.00	192.67
661.00	201.00
662.00	227.00
663.00	278.33
664.00	335.00
665.00	371.33
666.00	357.00
667.00	331.00
668.00	311.67
669.00	329.67
670.00	369.00
671.00	455.67
672.00	862.33
673.00	2086.00
674.00	3258.33
675.00	4095.00
676.00	4095.00
677.00	4095.00
678.00	4095.00
679.00	4095.00
680.00	4095.00
681.00	4095.00
682.00	3465.00
683.00	2332.67
684.00	1119.67
685.00	503.33
686.00	370.00
687.00	300.67
688.00	259.00
689.00	229.00
690.00	215.33
691.00	202.00
692.00	193.67
693.00	182.33
694.00	178.00
695.00	174.00
696.00	174.67
697.00	175.33
698.00	174.33
699.00	172.00
700.00	168.00
701.00	166.00
702.00	164.33
703.00	162.00
704.00	162.33
705.00	162.00
706.00	161.67
707.00	160.33
708.00	158.33
709.00	157.33
710.00	155.67
711.00	153.00
712.00	152.00
713.00	151.67
714.00	152.67
715.00	152.33
716.00	152.00
717.00	153.33
718.00	152.67
719.00	152.33
720.00	150.33
721.00	149.67
722.00	149.00
723.00	149.33
724.00	149.33
725.00	149.00
726.00	149.00
727.00	148.67
728.00	148.00
729.00	146.33
730.00	145.67
731.00	146.33
732.00	147.33
733.00	149.00
734.00	150.33
735.00	151.00
736.00	149.00
737.00	145.67
738.00	143.33
739.00	142.33
740.00	144.00
741.00	145.00
742.00	146.67
743.00	146.67
744.00	146.00
745.00	145.67
746.00	145.67
747.00	147.00
748.00	146.33
749.00	145.33
750.00	143.00
751.00	144.33
752.00	144.67
753.00	146.67
754.00	148.33
755.00	153.67
756.00	158.00
757.00	158.33
758.00	155.67
759.00	152.00
760.00	149.33
761.00	147.00
762.00	147.00
763.00	147.00
764.00	146.00
765.00	144.33
766.00	144.00
767.00	144.00
768.00	143.33
769.00	142.33
770.00	141.33
771.00	141.67
772.00	141.67
773.00	142.00
774.00	141.33
775.00	142.00
776.00	142.67
777.00	144.00
778.00	144.67
779.00	143.67
780.00	143.33
781.00	142.67
782.00	144.00
783.00	145.00
784.00	146.33
785.00	145.33
786.00	144.00
787.00	142.33
788.00	141.33
789.00	140.33
790.00	139.33
791.00	140.67
792.00	141.00
793.00	142.00
794.00	143.33
795.00	145.33
796.00	146.00
797.00	144.67
798.00	142.67
799.00	142.00
800.00	143.33
801.00	144.67
802.00	145.33
803.00	144.33
804.00	144.00
805.00	143.67
806.00	143.67
807.00	144.00
808.00	143.33
809.00	143.33
810.00	143.00
811.00	143.67
812.00	145.33
813.00	145.67
814.00	145.67
815.00	144.67
816.00	145.00
817.00	147.67
818.00	148.00
819.00	148.00
820.00	146.00
821.00	146.33
822.00	146.33
823.00	146.00
824.00	145.33
825.00	145.33
826.00	146.33
827.00	147.00
828.00	147.33
829.00	145.33
830.00	145.00
831.00	145.00
832.00	146.00
833.00	146.33
834.00	145.67
835.00	145.00
836.00	143.33
837.00	142.33
838.00	143.33
839.00	145.33
840.00	147.00
841.00	147.00
842.00	148.33
843.00	148.67
844.00	148.67
845.00	145.67
846.00	144.00
847.00	142.33
848.00	141.00
849.00	139.67
850.00	140.00
851.00	140.67
852.00	141.67
853.00	140.67
854.00	141.00
855.00	140.67
856.00	140.67
857.00	139.00
858.00	138.33
859.00	138.33
860.00	140.33
861.00	141.67
862.00	143.33
863.00	145.33
864.00	148.00
865.00	150.00
866.00	150.33
867.00	149.33
868.00	149.00
869.00	147.33
870.00	146.00
871.00	144.67
872.00	146.00
873.00	147.67
874.00	147.33
875.00	147.00
876.00	147.67
877.00	150.33
878.00	152.33
879.00	153.00
880.00	153.67
881.00	153.67
882.00	153.33
883.00	152.33
884.00	150.67
885.00	150.00
886.00	150.00
887.00	150.33
888.00	149.67
889.00	148.67
890.00	147.00
891.00	146.67
892.00	146.00
893.00	150.00
894.00	160.00
895.00	174.00
896.00	185.67
897.00	188.33
898.00	182.67
899.00	177.00
900.00	176.33
901.00	188.33
902.00	289.33
903.00	1124.33
904.00	2420.33
905.00	3626.00
906.00	4095.00
907.00	4095.00
908.00	4095.00
909.00	4095.00
910.00	3994.67
911.00	3281.00
912.00	2262.67
913.00	1175.67
914.00	628.67
915.00	355.33
916.00	242.67
917.00	197.33
918.00	180.00
919.00	168.00
920.00	160.00
921.00	154.33
922.00	150.33
923.00	147.67
924.00	144.67
925.00	143.67
926.00	142.33
927.00	142.33
928.00	140.67
929.00	140.00
930.00	139.00
931.00	139.33
932.00	140.00
933.00	141.33
934.00	142.00
935.00	143.33
936.00	142.67
937.00	141.67
938.00	139.33
939.00	137.33
940.00	136.67
941.00	137.33
942.00	139.00
943.00	138.33
944.00	137.67
945.00	137.67
946.00	138.33
947.00	139.00
948.00	139.67
949.00	140.67
950.00	139.33
951.00	138.00
952.00	137.33
953.00	137.33
954.00	136.33
955.00	135.33
956.00	135.00
957.00	136.00
958.00	136.67
959.00	137.67
960.00	138.33
961.00	139.33
962.00	140.33
963.00	141.00
964.00	141.67
965.00	141.67
966.00	141.33
967.00	142.33
968.00	142.67
969.00	142.33
970.00	139.00
971.00	137.33
972.00	137.67
973.00	140.67
974.00	142.67
975.00	143.67
976.00	143.67
977.00	144.00
978.00	144.67
979.00	144.67
980.00	145.33
981.00	146.67
982.00	148.33
983.00	148.33
984.00	145.67
985.00	144.00
986.00	143.67
987.00	145.00
988.00	145.67
989.00	147.00
990.00	147.33
991.00	147.00
992.00	146.67
993.00	147.33
994.00	150.00
995.00	151.67
996.00	154.00
997.00	153.33
998.00	151.67
999.00	151.33
1000.00	152.33
1001.00	153.67
1002.00	151.33
1003.00	150.67
1004.00	152.00
1005.00	155.00
1006.00	155.67
1007.00	157.67
1008.00	167.33
1009.00	184.67
1010.00	205.67
1011.00	219.00
1012.00	219.00
1013.00	215.33
1014.00	216.67
1015.00	261.67
1016.00	783.33
1017.00	2071.67
1018.00	3323.00
1019.00	4095.00
1020.00	4095.00
1021.00	4095.00
1022.00	4095.00
1023.00	4095.00
1024.00	4095.00
1025.00	3955.00
1026.00	3152.67
1027.00	2072.33
1028.00	1004.33
1029.00	539.67
1030.00	330.33
1031.00	241.33
1032.00	205.33
1033.00	186.33
1034.00	172.00
1035.00	161.67
1036.00	156.00
1037.00	151.33
1038.00	148.33
1039.00	145.33
1040.00	144.00
1041.00	142.33
1042.00	140.00
1043.00	138.00
1044.00	137.67
1045.00	139.67
1046.00	142.00
1047.00	142.67
1048.00	143.33
1049.00	142.33
1050.00	142.00
1051.00	141.00
1052.00	141.00
1053.00	141.33
1054.00	140.67
1055.00	139.33
1056.00	138.33
1057.00	138.33
1058.00	140.33
1059.00	140.67
1060.00	142.00
1061.00	140.67
1062.00	138.67
1063.00	135.00
1064.00	132.67
1065.00	134.33
1066.00	136.67
1067.00	139.00
1068.00	138.00
1069.00	136.33
1070.00	136.67
1071.00	138.33
1072.00	139.67
1073.00	141.33
1074.00	144.00
1075.00	146.00
1076.00	146.00
1077.00	144.33
1078.00	145.67
1079.00	148.67
1080.00	183.00
1081.00	411.33
1082.00	918.33
1083.00	1538.00
1084.00	1913.67
1085.00	1840.00
1086.00	1524.00
1087.00	1164.67
1088.00	899.67
1089.00	679.67
1090.00	508.33
1091.00	371.00
1092.00	269.33
1093.00	203.00
1094.00	170.00
1095.00	153.67
1096.00	145.67
1097.00	142.67
1098.00	140.67
1099.00	138.33
1100.00	137.33
1101.00	136.33
1102.00	136.00
1103.00	136.00
1104.00	135.67
1105.00	135.67
1106.00	136.33
1107.00	136.00
1108.00	134.00
1109.00	132.00
1110.00	131.67
1111.00	132.00
1112.00	132.67
1113.00	133.33
1114.00	133.67
1115.00	133.00
1116.00	131.00
1117.00	130.67
1118.00	131.00
1119.00	134.00
1120.00	135.00
1121.00	135.67
1122.00	134.00
1123.00	133.00
1124.00	131.67
1125.00	131.00
1126.00	130.67
1127.00	131.00
1128.00	132.33
1129.00	133.33
1130.00	133.67
1131.00	133.33
1132.00	134.33
1133.00	135.67
1134.00	136.00
1135.00	135.00
1136.00	132.33
1137.00	130.67
1138.00	130.00
1139.00	130.67
1140.00	132.00
1141.00	132.33
1142.00	134.00
1143.00	135.00
1144.00	135.00
1145.00	133.00
1146.00	131.67
1147.00	132.00
1148.00	132.67
1149.00	132.33
1150.00	131.33
1151.00	132.00
1152.00	132.33
1153.00	133.33
1154.00	133.33
1155.00	134.00
1156.00	133.67
1157.00	134.67
1158.00	135.67
1159.00	136.00
1160.00	134.67
1161.00	133.00
1162.00	133.00
1163.00	134.00
1164.00	135.67
1165.00	135.00
1166.00	133.00
1167.00	130.00
1168.00	129.67
1169.00	131.00
1170.00	132.00
1171.00	132.33
1172.00	132.67
1173.00	134.00
1174.00	133.67
1175.00	133.33
1176.00	132.33
1177.00	132.67
1178.00	131.67
1179.00	131.33
1180.00	130.33
1181.00	131.00
1182.00	131.67
1183.00	133.33
1184.00	134.33
1185.00	135.00
1186.00	134.33
1187.00	133.33
1188.00	134.00
1189.00	134.67
1190.00	136.33
1191.00	135.33
1192.00	135.00
1193.00	134.33
1194.00	134.67
1195.00	135.33
1196.00	134.33
1197.00	133.33
1198.00	133.00
1199.00	132.67
1200.00	132.00
1201.00	131.67
1202.00	132.67
1203.00	135.33
1204.00	136.33
1205.00	136.33
1206.00	135.67
1207.00	134.67
1208.00	133.33
1209.00	132.00
1210.00	131.67
1211.00	132.33
1212.00	132.67
1213.00	133.00
1214.00	132.00
1215.00	131.67
1216.00	131.33
1217.00	132.33
1218.00	133.00
1219.00	134.00
1220.00	134.33
1221.00	134.33
1222.00	133.00
1223.00	132.00
1224.00	131.67
1225.00	132.67
1226.00	133.67
1227.00	134.00
1228.00	135.00
1229.00	144.00
1230.00	179.67
1231.00	239.67
1232.00	296.00
1233.00	312.67
1234.00	292.00
1235.00	259.33
1236.00	231.00
1237.00	207.33
1238.00	185.67
1239.00	169.67
1240.00	160.33
1241.00	153.00
1242.00	147.00
1243.00	140.33
1244.00	138.33
1245.00	136.00
1246.00	136.00
1247.00	134.00
1248.00	134.00
1249.00	132.33
1250.00	130.33
1251.00	128.67
1252.00	129.33
1253.00	131.33
1254.00	133.00
1255.00	132.67
1256.00	132.33
1257.00	132.33
1258.00	132.67
1259.00	133.33
1260.00	133.00
1261.00	131.67
1262.00	130.33
1263.00	131.00
1264.00	133.00
1265.00	135.00
1266.00	135.67
1267.00	134.67
1268.00	134.00
1269.00	132.67
1270.00	131.67
1271.00	131.00
1272.00	131.33
1273.00	133.00
1274.00	132.67
1275.00	132.00
1276.00	131.67
1277.00	132.33
1278.00	132.00
1279.00	130.33
1280.00	129.00
1281.00	128.67
1282.00	129.33
1283.00	130.33
1284.00	131.33
1285.00	132.67
1286.00	133.00
1287.00	133.33
1288.00	134.67
1289.00	135.67
1290.00	136.33
1291.00	135.00
1292.00	133.67
1293.00	133.33
1294.00	133.33
1295.00	132.67
1296.00	132.67
1297.00	132.33
1298.00	133.00
1299.00	132.00
1300.00	131.67
1301.00	131.67
1302.00	131.67
1303.00	132.00
1304.00	132.67
1305.00	132.67
1306.00	132.67
1307.00	132.67
1308.00	132.67
1309.00	131.67
1310.00	131.67
1311.00	133.00
1312.00	133.67
1313.00	134.67
1314.00	134.67
1315.00	136.00
1316.00	134.33
1317.00	132.67
1318.00	130.67
1319.00	129.67
1320.00	130.00
1321.00	130.67
1322.00	130.67
1323.00	131.00
1324.00	131.00
1325.00	132.00
1326.00	132.00
1327.00	131.67
1328.00	131.00
1329.00	131.00
1330.00	131.33
1331.00	132.00
1332.00	132.00
1333.00	132.00
1334.00	131.00
1335.00	131.00
1336.00	131.33
1337.00	133.00
1338.00	133.67
1339.00	134.00
1340.00	134.67
1341.00	134.33
1342.00	132.67
1343.00	130.67
1344.00	130.67
1345.00	132.67
1346.00	132.67
1347.00	132.00
1348.00	130.67
1349.00	130.67
1350.00	130.00
1351.00	130.00
1352.00	130.67
1353.00	131.33
1354.00	131.00
1355.00	129.67
1356.00	129.33
1357.00	130.00
1358.00	130.67
1359.00	130.33
1360.00	131.00
1361.00	133.00
1362.00	136.33
1363.00	136.67
1364.00	135.33
1365.00	133.33
1366.00	132.33
1367.00	132.00
1368.00	131.00
1369.00	130.00
1370.00	131.33
1371.00	133.00
1372.00	136.00
1373.00	136.00
1374.00	134.33
1375.00	132.00
1376.00	132.00
1377.00	133.67
1378.00	133.33
1379.00	130.67
1380.00	129.00
1381.00	129.00
1382.00	130.00
1383.00	129.33
1384.00	130.33
1385.00	132.00
1386.00	134.00
1387.00	133.67
1388.00	132.67
1389.00	132.00
1390.00	132.67
1391.00	132.33
1392.00	132.00
1393.00	131.00
1394.00	131.67
1395.00	131.67
1396.00	132.00
1397.00	132.00
1398.00	132.33
1399.00	132.67
1400.00	134.33
1401.00	135.67
1402.00	136.67
1403.00	135.33
1404.00	134.00
1405.00	133.00
1406.00	131.67
1407.00	131.33
1408.00	130.33
1409.00	130.33
1410.00	130.00
1411.00	130.33
1412.00	130.33
1413.00	131.00
1414.00	131.67
1415.00	132.33
1416.00	131.67
1417.00	130.00
1418.00	128.67
1419.00	128.67
1420.00	129.33
1421.00	130.33
1422.00	131.00
1423.00	133.00
1424.00	134.67
1425.00	134.67
1426.00	132.33
1427.00	131.00
1428.00	130.33
1429.00	130.33
1430.00	130.33
1431.00	131.00
1432.00	131.33
1433.00	131.33
1434.00	132.00
1435.00	132.67
1436.00	133.00
1437.00	133.67
1438.00	135.67
1439.00	136.67
1440.00	140.67
1441.00	146.67
1442.00	152.67
1443.00	154.00
1444.00	150.67
1445.00	146.67
1446.00	142.33
1447.00	140.67
1448.00	139.00
1449.00	137.67
1450.00	135.33
1451.00	133.33
1452.00	131.67
1453.00	131.00
1454.00	131.33
1455.00	132.67
1456.00	133.33
1457.00	133.00
1458.00	131.67
1459.00	130.33
1460.00	131.33
1461.00	132.33
1462.00	134.00
1463.00	133.67
1464.00	132.67
1465.00	131.67
1466.00	131.33
1467.00	132.33
1468.00	133.00
1469.00	134.33
1470.00	135.00
1471.00	134.67
1472.00	133.00
1473.00	131.67
1474.00	130.67
1475.00	130.33
1476.00	131.33
1477.00	132.67
1478.00	133.33
1479.00	131.67
1480.00	129.33
1481.00	128.33
1482.00	128.00
1483.00	128.67
1484.00	128.67
1485.00	129.00
1486.00	129.00
1487.00	128.33
1488.00	128.67
1489.00	129.67
1490.00	131.67
1491.00	131.67
1492.00	130.33
1493.00	130.00
1494.00	130.33
1495.00	131.33
1496.00	131.00
1497.00	130.67
1498.00	130.00
1499.00	129.67
1500.00	129.33
1501.00	129.67
1502.00	130.67
1503.00	132.00
1504.00	132.00
1505.00	131.67
1506.00	132.00
1507.00	133.00
1508.00	133.67
1509.00	133.67
1510.00	133.33
1511.00	132.67
1512.00	132.33
1513.00	133.00
1514.00	133.67
1515.00	133.67
1516.00	132.33
1517.00	131.67
1518.00	131.00
1519.00	132.33
1520.00	133.67
1521.00	135.67
1522.00	136.33
1523.00	135.67
1524.00	134.33
1525.00	133.33
1526.00	133.00
1527.00	133.00
1528.00	133.00
1529.00	132.67
1530.00	131.67
1531.00	131.33
1532.00	131.00
1533.00	131.33
1534.00	132.00
1535.00	132.00
1536.00	131.33
1537.00	129.67
1538.00	129.33
1539.00	130.33
1540.00	131.67
1541.00	132.67
1542.00	134.33
1543.00	134.67
1544.00	134.33
1545.00	133.00
1546.00	133.00
1547.00	132.67
1548.00	132.67
1549.00	132.33
1550.00	132.00
1551.00	131.00
1552.00	129.33
1553.00	129.67
1554.00	130.33
1555.00	131.67
1556.00	132.33
1557.00	133.33
1558.00	134.33
1559.00	134.00
1560.00	133.00
1561.00	132.00
1562.00	131.67
1563.00	131.33
1564.00	131.67
1565.00	131.67
1566.00	131.33
1567.00	130.67
1568.00	131.33
1569.00	131.67
1570.00	131.33
1571.00	130.33
1572.00	130.00
1573.00	131.00
1574.00	132.33
1575.00	132.67
1576.00	132.67
1577.00	132.33
1578.00	133.33
1579.00	133.00
1580.00	132.33
1581.00	132.33
1582.00	132.33
1583.00	132.67
1584.00	131.67
1585.00	131.67
1586.00	130.67
1587.00	129.67
1588.00	129.00
1589.00	130.00
1590.00	131.67
1591.00	132.33
1592.00	134.33
1593.00	135.67
1594.00	135.00
1595.00	132.67
1596.00	132.00
1597.00	133.33
1598.00	135.00
1599.00	134.00
1600.00	132.33
1601.00	130.33
1602.00	131.00
1603.00	133.33
1604.00	134.33
1605.00	133.33
1606.00	132.67
1607.00	132.33
1608.00	132.67
1609.00	131.00
1610.00	130.33
1611.00	130.67
1612.00	132.00
1613.00	132.00
1614.00	130.67
1615.00	129.67
1616.00	130.33
1617.00	132.00
1618.00	134.00
1619.00	134.33
1620.00	133.33
1621.00	131.67
1622.00	131.33
1623.00	132.00
1624.00	133.00
1625.00	133.33
1626.00	132.67
1627.00	131.33
1628.00	130.00
1629.00	129.33
1630.00	128.33
1631.00	128.67
1632.00	129.67
1633.00	131.67
1634.00	132.00
1635.00	132.00
1636.00	132.33
1637.00	133.00
1638.00	133.00
1639.00	132.67
1640.00	131.67
1641.00	131.33
1642.00	131.00
1643.00	131.67
1644.00	131.67
1645.00	132.00
1646.00	133.00
1647.00	134.67
1648.00	134.33
1649.00	132.33
1650.00	130.67
1651.00	130.67
1652.00	131.00
1653.00	131.00
1654.00	131.00
1655.00	132.00
1656.00	132.00
1657.00	131.67
1658.00	130.67
1659.00	130.67
1660.00	131.67
1661.00	132.67
1662.00	133.00
1663.00	132.33
1664.00	131.67
1665.00	132.00
1666.00	131.33
1667.00	131.00
1668.00	130.33
1669.00	130.67
1670.00	131.33
1671.00	132.67
1672.00	134.00
1673.00	135.33
1674.00	134.33
1675.00	133.00
1676.00	131.67
1677.00	132.33
1678.00	133.33
1679.00	133.67
1680.00	133.33
1681.00	133.33
1682.00	133.67
1683.00	132.33
1684.00	131.33
1685.00	130.67
1686.00	130.67
1687.00	131.00
1688.00	132.00
1689.00	133.67
1690.00	133.33
1691.00	132.67
1692.00	132.00
1693.00	132.00
1694.00	132.00
1695.00	132.67
1696.00	134.33
1697.00	134.67
1698.00	134.33
1699.00	133.67
1700.00	133.00
1701.00	132.67
1702.00	132.00
1703.00	132.33
1704.00	133.67
1705.00	135.00
1706.00	136.33
1707.00	137.33
1708.00	137.00
1709.00	135.33
1710.00	133.33
1711.00	133.00
1712.00	133.00
1713.00	133.00
1714.00	131.67
1715.00	131.67
1716.00	132.33
1717.00	133.33
1718.00	133.33
1719.00	132.00
1720.00	131.00
1721.00	130.67
1722.00	129.67
1723.00	130.33
1724.00	131.33
1725.00	133.00
1726.00	133.33
1727.00	132.67
1728.00	132.00
1729.00	130.67
1730.00	130.00
1731.00	130.67
1732.00	131.33
1733.00	131.67
1734.00	131.67
1735.00	132.67
1736.00	133.00
1737.00	133.00
1738.00	133.00
1739.00	133.00
1740.00	132.33
1741.00	131.00
1742.00	130.67
1743.00	131.67
1744.00	133.00
1745.00	134.67
1746.00	134.67
1747.00	135.00
1748.00	134.33
1749.00	134.00
1750.00	132.67
1751.00	132.33
1752.00	131.00
1753.00	131.33
1754.00	130.67
1755.00	131.00
1756.00	131.33
1757.00	133.00
1758.00	134.33
1759.00	134.33
1760.00	132.67
1761.00	131.00
1762.00	129.67
1763.00	130.00
1764.00	131.67
1765.00	133.00
1766.00	133.33
1767.00	132.33
1768.00	132.33
1769.00	132.67
1770.00	133.33
1771.00	133.67
1772.00	133.67
1773.00	133.33
1774.00	133.00
1775.00	132.67
1776.00	132.67
1777.00	133.00
1778.00	134.00
1779.00	134.67
1780.00	133.00
1781.00	131.00
1782.00	130.33
1783.00	131.33
1784.00	132.33
1785.00	132.67
1786.00	132.33
1787.00	131.33
1788.00	132.00
1789.00	133.00
1790.00	132.67
1791.00	130.67
1792.00	130.67
1793.00	131.67
1794.00	132.00
1795.00	130.67
1796.00	129.33
1797.00	128.67
1798.00	129.00
1799.00	132.00
1800.00	133.67
1801.00	133.33
1802.00	131.33
1803.00	131.67
1804.00	134.00
1805.00	135.00
1806.00	134.00
1807.00	131.33
1808.00	130.00
1809.00	130.33
1810.00	131.33
1811.00	131.67
1812.00	131.33
1813.00	130.67
1814.00	130.67
1815.00	131.33
1816.00	133.00
1817.00	132.67
1818.00	131.00
1819.00	130.33
1820.00	130.67
1821.00	131.67
1822.00	131.33
1823.00	131.33
1824.00	131.67
1825.00	131.67
1826.00	132.00
1827.00	132.00
1828.00	131.33
1829.00	130.67
1830.00	130.00
1831.00	130.33
1832.00	130.33
1833.00	130.67
1834.00	130.00
1835.00	130.67
1836.00	131.00
1837.00	131.67
1838.00	132.00
1839.00	132.33
1840.00	133.00
1841.00	132.00
1842.00	130.67
1843.00	128.67
1844.00	128.33
1845.00	128.33
1846.00	130.33
1847.00	132.00
1848.00	134.33
1849.00	133.67
1850.00	132.67
1851.00	133.00
1852.00	134.00
1853.00	134.00
1854.00	132.33
1855.00	133.00
1856.00	134.67
1857.00	134.67
1858.00	133.33
1859.00	131.33
1860.00	130.00
1861.00	129.33
1862.00	130.00
1863.00	131.00
1864.00	131.67
1865.00	131.67
1866.00	131.67
1867.00	132.00
1868.00	132.00
1869.00	132.33
1870.00	131.33
1871.00	130.33
1872.00	129.00
1873.00	128.67
1874.00	129.33
1875.00	130.67
1876.00	131.67
1877.00	131.33
1878.00	130.33
1879.00	130.00
1880.00	131.33
1881.00	131.67
1882.00	131.67
1883.00	130.67
1884.00	131.00
1885.00	132.67
1886.00	133.33
1887.00	133.00
1888.00	130.33
1889.00	129.00
1890.00	129.00
1891.00	129.00
1892.00	130.00
1893.00	130.67
1894.00	130.67
1895.00	129.67
1896.00	128.33
1897.00	129.67
1898.00	131.00
1899.00	133.33
1900.00	133.67
1901.00	134.00
1902.00	134.00
1903.00	134.00
1904.00	132.00
1905.00	130.00
1906.00	128.67
1907.00	130.33
1908.00	131.33
1909.00	133.00
1910.00	133.00
1911.00	132.67
1912.00	130.67
1913.00	129.00
1914.00	129.00
1915.00	131.33
1916.00	133.33
1917.00	132.33
1918.00	129.33
1919.00	127.67
1920.00	129.00
1921.00	131.33
1922.00	132.00
1923.00	130.00
1924.00	127.67
1925.00	126.67
1926.00	129.00
1927.00	130.67
1928.00	131.00
1929.00	130.00
1930.00	131.00
1931.00	131.67
1932.00	132.33
1933.00	131.67
1934.00	132.67
1935.00	133.67
1936.00	134.33
1937.00	134.33
1938.00	134.00
1939.00	133.67
1940.00	132.67
1941.00	131.33
1942.00	131.00
1943.00	132.33
1944.00	133.00
1945.00	132.00
1946.00	130.67
1947.00	131.00
1948.00	132.00
1949.00	131.67
1950.00	130.00
1951.00	130.00
1952.00	131.00
1953.00	132.00
1954.00	132.00
1955.00	131.33
1956.00	131.67
1957.00	133.00
1958.00	133.33
1959.00	132.67
1960.00	130.33
1961.00	130.00
1962.00	129.33
1963.00	129.00
1964.00	128.33
1965.00	128.67
1966.00	130.00
1967.00	131.33
1968.00	132.33
1969.00	131.33
1970.00	130.67
1971.00	130.00
1972.00	130.33
1973.00	130.67
1974.00	131.67
1975.00	132.00
1976.00	132.00
1977.00	131.67
1978.00	131.67
1979.00	131.67
1980.00	132.00
1981.00	133.00
1982.00	133.33
1983.00	133.33
1984.00	132.67
1985.00	132.00
1986.00	131.00
1987.00	129.33
1988.00	128.67
1989.00	130.00
1990.00	132.33
1991.00	133.67
1992.00	132.33
1993.00	131.33
1994.00	131.33
1995.00	131.67
1996.00	131.67
1997.00	131.00
1998.00	131.67
1999.00	131.33
2000.00	130.67
2001.00	129.33
2002.00	129.00
2003.00	129.33
2004.00	130.00
2005.00	131.00
2006.00	131.67
2007.00	133.00
2008.00	134.33
2009.00	133.33
2010.00	131.67
2011.00	129.67
2012.00	129.67
2013.00	129.00
2014.00	129.00
2015.00	130.00
2016.00	131.67
2017.00	132.67
2018.00	131.67
2019.00	130.00
2020.00	129.33
2021.00	130.00
2022.00	131.33
2023.00	132.33
2024.00	134.00
2025.00	135.33
2026.00	135.33
2027.00	134.67
2028.00	133.67
2029.00	132.67
2030.00	131.67
2031.00	131.33
2032.00	132.00
2033.00	133.00
2034.00	133.67
2035.00	133.67
2036.00	133.33
2037.00	133.33
2038.00	133.00
2039.00	134.00
2040.00	133.67
2041.00	133.67
2042.00	132.33
2043.00	131.33
2044.00	131.33
2045.00	131.00
2046.00	131.33
2047.00	131.00
>>>>>End Processed Spectral Data<<<<<
