SpectraSuite Data File
++++++++++++++++++++++++++++++++++++
Date: Fri Feb 17 17:28:17 PST 2017
User: admin
Dark Spectrum Present: No
Reference Spectrum Present: No
Number of Sampled Component Spectra: 1
Spectrometers: USB2G8485
Integration Time (usec): 100000 (USB2G8485)
Spectra Averaged: 1 (USB2G8485)
Boxcar Smoothing: 1 (USB2G8485)
Correct for Electrical Dark: No (USB2G8485)
Strobe/Lamp Enabled: No (USB2G8485)
Correct for Detector Non-linearity: No (USB2G8485)
Correct for Stray Light: No (USB2G8485)
Number of Pixels in Processed Spectrum: 2048
>>>>>Begin Processed Spectral Data<<<<<
0.00	0.00
1.00	79.33
2.00	119.67
3.00	120.67
4.00	122.67
5.00	124.67
6.00	126.00
7.00	127.00
8.00	127.00
9.00	128.00
10.00	128.67
11.00	129.00
12.00	129.00
13.00	128.00
14.00	128.33
15.00	128.00
16.00	129.00
17.00	129.00
18.00	127.67
19.00	127.33
20.00	127.00
21.00	128.00
22.00	127.00
23.00	127.67
24.00	129.33
25.00	131.33
26.00	133.67
27.00	134.33
28.00	133.33
29.00	131.00
30.00	131.00
31.00	133.67
32.00	135.00
33.00	134.67
34.00	134.00
35.00	135.67
36.00	136.67
37.00	136.00
38.00	134.67
39.00	135.33
40.00	136.00
41.00	138.00
42.00	138.00
43.00	139.00
44.00	139.00
45.00	139.00
46.00	140.00
47.00	138.33
48.00	138.00
49.00	135.67
50.00	135.33
51.00	135.33
52.00	137.33
53.00	139.33
54.00	140.33
55.00	140.33
56.00	139.33
57.00	138.67
58.00	137.67
59.00	136.33
60.00	135.33
61.00	135.33
62.00	135.67
63.00	136.67
64.00	136.67
65.00	136.33
66.00	136.33
67.00	137.00
68.00	139.00
69.00	139.00
70.00	138.67
71.00	137.67
72.00	137.33
73.00	138.00
74.00	139.33
75.00	141.33
76.00	142.00
77.00	141.33
78.00	140.67
79.00	141.33
80.00	142.33
81.00	143.33
82.00	142.00
83.00	142.00
84.00	141.67
85.00	141.67
86.00	142.00
87.00	141.67
88.00	141.67
89.00	141.33
90.00	142.00
91.00	144.33
92.00	145.33
93.00	145.67
94.00	145.67
95.00	145.67
96.00	145.33
97.00	143.67
98.00	142.67
99.00	143.00
100.00	143.67
101.00	146.00
102.00	146.33
103.00	146.67
104.00	145.67
105.00	145.00
106.00	146.33
107.00	149.00
108.00	152.33
109.00	153.00
110.00	150.67
111.00	148.33
112.00	147.33
113.00	149.33
114.00	151.67
115.00	153.33
116.00	152.67
117.00	151.33
118.00	151.00
119.00	153.33
120.00	156.00
121.00	156.67
122.00	156.67
123.00	156.00
124.00	156.33
125.00	154.67
126.00	155.00
127.00	155.67
128.00	157.67
129.00	158.67
130.00	160.33
131.00	162.67
132.00	163.33
133.00	164.00
134.00	163.00
135.00	164.67
136.00	164.33
137.00	165.33
138.00	163.67
139.00	165.00
140.00	165.67
141.00	168.00
142.00	168.33
143.00	169.67
144.00	172.67
145.00	174.00
146.00	174.67
147.00	174.33
148.00	175.00
149.00	176.67
150.00	176.33
151.00	181.67
152.00	183.67
153.00	187.00
154.00	185.33
155.00	186.67
156.00	187.67
157.00	190.33
158.00	194.33
159.00	195.33
160.00	195.33
161.00	191.00
162.00	194.67
163.00	198.00
164.00	200.67
165.00	200.33
166.00	202.67
167.00	205.33
168.00	210.00
169.00	211.67
170.00	214.67
171.00	216.67
172.00	217.33
173.00	220.00
174.00	220.33
175.00	221.33
176.00	224.00
177.00	226.67
178.00	231.33
179.00	238.67
180.00	244.67
181.00	251.00
182.00	251.00
183.00	252.33
184.00	255.67
185.00	258.33
186.00	261.00
187.00	260.67
188.00	261.67
189.00	267.33
190.00	273.00
191.00	280.67
192.00	279.67
193.00	285.00
194.00	286.33
195.00	292.00
196.00	294.33
197.00	299.33
198.00	303.00
199.00	303.00
200.00	305.33
201.00	307.00
202.00	310.33
203.00	316.33
204.00	322.00
205.00	324.33
206.00	325.67
207.00	327.33
208.00	332.67
209.00	332.67
210.00	334.67
211.00	336.67
212.00	343.00
213.00	352.00
214.00	360.33
215.00	365.67
216.00	369.67
217.00	373.00
218.00	375.00
219.00	377.33
220.00	383.33
221.00	388.00
222.00	393.00
223.00	394.67
224.00	400.00
225.00	401.00
226.00	411.00
227.00	415.33
228.00	419.00
229.00	417.67
230.00	420.00
231.00	426.67
232.00	433.67
233.00	441.00
234.00	451.33
235.00	454.67
236.00	461.00
237.00	456.00
238.00	457.33
239.00	466.33
240.00	473.33
241.00	473.67
242.00	472.67
243.00	484.00
244.00	499.33
245.00	508.67
246.00	513.67
247.00	515.00
248.00	516.00
249.00	515.33
250.00	524.33
251.00	525.00
252.00	535.33
253.00	536.00
254.00	543.33
255.00	547.00
256.00	551.67
257.00	558.67
258.00	564.00
259.00	576.00
260.00	585.00
261.00	590.00
262.00	588.67
263.00	594.00
264.00	595.33
265.00	599.33
266.00	601.00
267.00	605.33
268.00	615.33
269.00	614.00
270.00	624.00
271.00	631.00
272.00	640.33
273.00	642.00
274.00	643.00
275.00	656.67
276.00	667.67
277.00	673.67
278.00	665.33
279.00	669.67
280.00	680.67
281.00	696.00
282.00	704.33
283.00	710.00
284.00	719.33
285.00	722.67
286.00	726.00
287.00	735.00
288.00	746.67
289.00	756.33
290.00	755.67
291.00	757.00
292.00	761.00
293.00	770.33
294.00	775.00
295.00	783.00
296.00	785.00
297.00	792.33
298.00	795.33
299.00	810.33
300.00	819.67
301.00	831.00
302.00	836.00
303.00	841.33
304.00	845.33
305.00	852.00
306.00	860.00
307.00	872.00
308.00	885.00
309.00	886.67
310.00	893.33
311.00	894.00
312.00	912.33
313.00	915.67
314.00	925.67
315.00	932.00
316.00	936.33
317.00	935.33
318.00	945.33
319.00	964.00
320.00	982.67
321.00	986.33
322.00	1000.67
323.00	998.67
324.00	1006.00
325.00	1003.67
326.00	1017.00
327.00	1031.00
328.00	1042.33
329.00	1042.00
330.00	1048.67
331.00	1052.00
332.00	1071.00
333.00	1077.00
334.00	1090.67
335.00	1087.33
336.00	1083.33
337.00	1085.67
338.00	1108.33
339.00	1124.00
340.00	1134.33
341.00	1145.00
342.00	1169.00
343.00	1183.00
344.00	1183.33
345.00	1184.67
346.00	1197.33
347.00	1209.67
348.00	1228.33
349.00	1238.67
350.00	1260.00
351.00	1258.33
352.00	1266.33
353.00	1283.00
354.00	1309.67
355.00	1330.67
356.00	1334.00
357.00	1330.33
358.00	1337.67
359.00	1362.33
360.00	1394.33
361.00	1424.33
362.00	1433.33
363.00	1447.33
364.00	1454.00
365.00	1476.67
366.00	1500.67
367.00	1514.33
368.00	1518.67
369.00	1525.67
370.00	1553.00
371.00	1569.33
372.00	1586.67
373.00	1596.00
374.00	1623.00
375.00	1637.67
376.00	1662.00
377.00	1676.67
378.00	1695.33
379.00	1708.00
380.00	1726.00
381.00	1755.33
382.00	1770.67
383.00	1792.00
384.00	1802.00
385.00	1822.00
386.00	1839.33
387.00	1853.67
388.00	1871.00
389.00	1887.33
390.00	1910.67
391.00	1924.33
392.00	1929.00
393.00	1946.67
394.00	1967.00
395.00	2000.33
396.00	2002.33
397.00	2013.67
398.00	2010.67
399.00	2025.00
400.00	2036.67
401.00	2060.00
402.00	2079.00
403.00	2097.67
404.00	2109.67
405.00	2124.67
406.00	2140.00
407.00	2149.33
408.00	2159.00
409.00	2163.33
410.00	2180.33
411.00	2196.33
412.00	2207.33
413.00	2204.67
414.00	2209.33
415.00	2225.67
416.00	2246.00
417.00	2268.00
418.00	2289.33
419.00	2304.33
420.00	2307.00
421.00	2298.00
422.00	2307.00
423.00	2319.67
424.00	2340.33
425.00	2355.33
426.00	2364.67
427.00	2373.33
428.00	2383.00
429.00	2398.33
430.00	2404.00
431.00	2415.67
432.00	2423.67
433.00	2432.00
434.00	2445.67
435.00	2452.33
436.00	2459.67
437.00	2468.67
438.00	2477.00
439.00	2483.67
440.00	2485.67
441.00	2493.33
442.00	2502.67
443.00	2513.67
444.00	2527.67
445.00	2551.33
446.00	2552.00
447.00	2564.33
448.00	2567.00
449.00	2585.00
450.00	2582.67
451.00	2598.00
452.00	2604.33
453.00	2630.00
454.00	2642.00
455.00	2658.33
456.00	2668.67
457.00	2677.33
458.00	2673.00
459.00	2673.00
460.00	2676.33
461.00	2697.33
462.00	2720.00
463.00	2732.33
464.00	2740.00
465.00	2735.00
466.00	2737.00
467.00	2756.00
468.00	2769.33
469.00	2778.00
470.00	2773.00
471.00	2789.67
472.00	2806.67
473.00	2817.00
474.00	2816.33
475.00	2823.00
476.00	2839.00
477.00	2835.67
478.00	2849.00
479.00	2853.67
480.00	2865.00
481.00	2868.67
482.00	2865.33
483.00	2878.33
484.00	2875.33
485.00	2887.33
486.00	2891.00
487.00	2897.00
488.00	2898.00
489.00	2904.00
490.00	2914.00
491.00	2932.67
492.00	2929.67
493.00	2940.67
494.00	2935.00
495.00	2949.00
496.00	2952.00
497.00	2951.33
498.00	2952.67
499.00	2939.33
500.00	2958.33
501.00	2979.67
502.00	2999.33
503.00	2999.67
504.00	2988.67
505.00	2989.00
506.00	2990.33
507.00	2992.33
508.00	3008.33
509.00	3018.00
510.00	3024.33
511.00	3026.33
512.00	3020.33
513.00	3039.00
514.00	3040.00
515.00	3063.67
516.00	3070.00
517.00	3070.00
518.00	3059.67
519.00	3053.33
520.00	3060.67
521.00	3072.67
522.00	3080.67
523.00	3072.67
524.00	3066.33
525.00	3075.67
526.00	3105.00
527.00	3129.00
528.00	3126.33
529.00	3132.33
530.00	3129.67
531.00	3148.00
532.00	3136.00
533.00	3142.67
534.00	3139.00
535.00	3156.67
536.00	3177.33
537.00	3190.00
538.00	3193.67
539.00	3189.00
540.00	3191.00
541.00	3205.00
542.00	3213.33
543.00	3221.67
544.00	3227.00
545.00	3233.67
546.00	3244.33
547.00	3253.33
548.00	3262.00
549.00	3271.67
550.00	3269.33
551.00	3281.33
552.00	3286.33
553.00	3298.00
554.00	3301.67
555.00	3314.00
556.00	3333.67
557.00	3329.00
558.00	3331.67
559.00	3334.67
560.00	3355.33
561.00	3364.33
562.00	3373.67
563.00	3365.00
564.00	3368.00
565.00	3363.33
566.00	3377.00
567.00	3394.00
568.00	3397.00
569.00	3410.00
570.00	3413.00
571.00	3434.33
572.00	3444.00
573.00	3438.33
574.00	3430.67
575.00	3441.33
576.00	3441.33
577.00	3453.33
578.00	3452.33
579.00	3466.33
580.00	3465.33
581.00	3473.33
582.00	3471.67
583.00	3492.67
584.00	3481.67
585.00	3491.33
586.00	3472.67
587.00	3484.33
588.00	3493.00
589.00	3520.00
590.00	3544.67
591.00	3540.00
592.00	3537.33
593.00	3524.33
594.00	3537.00
595.00	3542.67
596.00	3542.33
597.00	3543.67
598.00	3545.33
599.00	3558.00
600.00	3576.33
601.00	3565.67
602.00	3569.33
603.00	3563.33
604.00	3587.00
605.00	3576.33
606.00	3567.33
607.00	3562.00
608.00	3581.67
609.00	3595.67
610.00	3594.00
611.00	3603.67
612.00	3612.00
613.00	3620.33
614.00	3618.67
615.00	3617.33
616.00	3619.00
617.00	3621.00
618.00	3628.67
619.00	3641.67
620.00	3628.00
621.00	3628.67
622.00	3611.33
623.00	3630.33
624.00	3636.67
625.00	3660.67
626.00	3653.67
627.00	3647.00
628.00	3650.33
629.00	3661.67
630.00	3674.00
631.00	3671.33
632.00	3663.00
633.00	3670.33
634.00	3663.33
635.00	3675.67
636.00	3684.67
637.00	3693.33
638.00	3701.33
639.00	3690.67
640.00	3691.33
641.00	3688.67
642.00	3695.00
643.00	3705.33
644.00	3702.33
645.00	3709.33
646.00	3720.00
647.00	3731.33
648.00	3734.33
649.00	3734.67
650.00	3741.00
651.00	3752.33
652.00	3752.67
653.00	3753.67
654.00	3744.00
655.00	3748.67
656.00	3750.00
657.00	3758.33
658.00	3758.33
659.00	3771.33
660.00	3767.00
661.00	3773.00
662.00	3765.00
663.00	3771.33
664.00	3781.67
665.00	3796.33
666.00	3795.00
667.00	3801.00
668.00	3787.00
669.00	3796.00
670.00	3790.00
671.00	3800.33
672.00	3799.67
673.00	3797.00
674.00	3795.33
675.00	3789.00
676.00	3791.33
677.00	3804.33
678.00	3805.33
679.00	3801.33
680.00	3796.33
681.00	3812.67
682.00	3818.67
683.00	3812.33
684.00	3809.33
685.00	3809.67
686.00	3821.67
687.00	3817.00
688.00	3829.67
689.00	3825.00
690.00	3835.33
691.00	3844.00
692.00	3843.00
693.00	3844.00
694.00	3841.33
695.00	3846.33
696.00	3860.67
697.00	3856.33
698.00	3871.67
699.00	3867.67
700.00	3867.67
701.00	3858.00
702.00	3858.67
703.00	3868.33
704.00	3887.33
705.00	3888.67
706.00	3905.33
707.00	3892.67
708.00	3900.67
709.00	3884.00
710.00	3896.33
711.00	3887.33
712.00	3895.00
713.00	3898.67
714.00	3903.33
715.00	3903.67
716.00	3912.33
717.00	3921.00
718.00	3928.67
719.00	3936.00
720.00	3947.33
721.00	3937.67
722.00	3928.33
723.00	3931.33
724.00	3938.67
725.00	3937.67
726.00	3924.33
727.00	3930.00
728.00	3911.00
729.00	3920.33
730.00	3923.67
731.00	3949.00
732.00	3942.67
733.00	3939.33
734.00	3942.00
735.00	3948.00
736.00	3947.67
737.00	3957.00
738.00	3950.00
739.00	3957.33
740.00	3947.00
741.00	3963.33
742.00	3960.33
743.00	3957.33
744.00	3945.33
745.00	3949.33
746.00	3963.00
747.00	3976.67
748.00	3962.33
749.00	3947.00
750.00	3943.00
751.00	3952.67
752.00	3944.00
753.00	3942.33
754.00	3934.67
755.00	3943.33
756.00	3942.00
757.00	3951.33
758.00	3956.67
759.00	3968.00
760.00	3981.67
761.00	3977.33
762.00	3967.33
763.00	3953.33
764.00	3950.67
765.00	3959.00
766.00	3965.00
767.00	3979.33
768.00	3974.33
769.00	3968.33
770.00	3964.33
771.00	3960.33
772.00	3968.67
773.00	3970.67
774.00	3968.00
775.00	3963.33
776.00	3955.67
777.00	3956.67
778.00	3971.00
779.00	3970.00
780.00	3972.33
781.00	3959.33
782.00	3961.00
783.00	3956.33
784.00	3964.00
785.00	3959.00
786.00	3960.00
787.00	3945.33
788.00	3945.33
789.00	3937.33
790.00	3924.67
791.00	3924.67
792.00	3927.00
793.00	3936.67
794.00	3946.33
795.00	3952.00
796.00	3946.33
797.00	3931.33
798.00	3932.33
799.00	3938.33
800.00	3942.33
801.00	3930.67
802.00	3937.00
803.00	3942.00
804.00	3938.67
805.00	3928.67
806.00	3909.67
807.00	3911.00
808.00	3918.67
809.00	3912.00
810.00	3911.33
811.00	3902.33
812.00	3910.33
813.00	3909.33
814.00	3902.67
815.00	3904.67
816.00	3909.33
817.00	3918.33
818.00	3915.00
819.00	3913.33
820.00	3910.00
821.00	3914.67
822.00	3908.67
823.00	3885.67
824.00	3887.67
825.00	3877.67
826.00	3886.33
827.00	3877.00
828.00	3873.67
829.00	3871.67
830.00	3867.67
831.00	3865.67
832.00	3860.00
833.00	3857.67
834.00	3861.00
835.00	3866.33
836.00	3855.67
837.00	3855.33
838.00	3842.67
839.00	3857.67
840.00	3846.33
841.00	3859.67
842.00	3838.33
843.00	3846.67
844.00	3825.67
845.00	3839.67
846.00	3834.67
847.00	3831.00
848.00	3812.67
849.00	3801.67
850.00	3795.67
851.00	3819.33
852.00	3832.00
853.00	3833.33
854.00	3818.67
855.00	3802.67
856.00	3809.67
857.00	3796.67
858.00	3796.67
859.00	3791.33
860.00	3784.33
861.00	3771.00
862.00	3773.33
863.00	3773.33
864.00	3760.33
865.00	3752.33
866.00	3740.67
867.00	3743.00
868.00	3750.00
869.00	3745.67
870.00	3747.33
871.00	3733.67
872.00	3727.33
873.00	3720.00
874.00	3697.67
875.00	3689.67
876.00	3683.67
877.00	3694.33
878.00	3696.33
879.00	3691.00
880.00	3682.33
881.00	3672.67
882.00	3669.00
883.00	3659.33
884.00	3658.33
885.00	3647.67
886.00	3641.33
887.00	3631.00
888.00	3632.33
889.00	3614.67
890.00	3609.67
891.00	3616.33
892.00	3621.00
893.00	3625.33
894.00	3611.67
895.00	3607.67
896.00	3606.67
897.00	3603.33
898.00	3625.67
899.00	3625.00
900.00	3614.33
901.00	3597.00
902.00	3593.67
903.00	3586.33
904.00	3555.00
905.00	3546.33
906.00	3562.67
907.00	3583.33
908.00	3584.67
909.00	3558.00
910.00	3551.67
911.00	3546.67
912.00	3546.33
913.00	3551.00
914.00	3532.67
915.00	3538.67
916.00	3531.67
917.00	3542.67
918.00	3534.67
919.00	3514.00
920.00	3498.33
921.00	3487.33
922.00	3482.67
923.00	3476.67
924.00	3473.33
925.00	3463.00
926.00	3456.00
927.00	3450.67
928.00	3460.33
929.00	3445.33
930.00	3433.67
931.00	3419.67
932.00	3427.33
933.00	3419.33
934.00	3429.00
935.00	3430.33
936.00	3445.67
937.00	3432.00
938.00	3422.33
939.00	3410.00
940.00	3403.00
941.00	3398.67
942.00	3384.00
943.00	3380.67
944.00	3375.00
945.00	3381.33
946.00	3380.67
947.00	3381.33
948.00	3386.00
949.00	3375.67
950.00	3366.33
951.00	3343.33
952.00	3339.00
953.00	3331.67
954.00	3326.33
955.00	3323.00
956.00	3316.33
957.00	3323.00
958.00	3314.33
959.00	3317.67
960.00	3315.67
961.00	3309.33
962.00	3295.67
963.00	3290.33
964.00	3290.00
965.00	3275.67
966.00	3263.00
967.00	3261.33
968.00	3267.67
969.00	3259.67
970.00	3240.33
971.00	3248.00
972.00	3245.00
973.00	3252.00
974.00	3238.67
975.00	3243.00
976.00	3238.67
977.00	3231.33
978.00	3219.67
979.00	3204.33
980.00	3198.33
981.00	3189.00
982.00	3188.00
983.00	3174.00
984.00	3170.67
985.00	3170.33
986.00	3172.67
987.00	3167.33
988.00	3161.67
989.00	3160.00
990.00	3150.67
991.00	3133.67
992.00	3124.33
993.00	3104.67
994.00	3104.67
995.00	3095.00
996.00	3103.00
997.00	3087.33
998.00	3080.67
999.00	3077.67
1000.00	3093.67
1001.00	3079.33
1002.00	3071.00
1003.00	3054.67
1004.00	3061.67
1005.00	3052.67
1006.00	3045.33
1007.00	3030.00
1008.00	3022.67
1009.00	3020.33
1010.00	3021.67
1011.00	3012.00
1012.00	3001.33
1013.00	2988.00
1014.00	2982.00
1015.00	2962.33
1016.00	2957.67
1017.00	2955.00
1018.00	2960.00
1019.00	2957.67
1020.00	2945.67
1021.00	2940.67
1022.00	2940.00
1023.00	2938.67
1024.00	2925.67
1025.00	2911.33
1026.00	2895.00
1027.00	2890.00
1028.00	2879.00
1029.00	2886.33
1030.00	2878.00
1031.00	2858.00
1032.00	2847.33
1033.00	2844.33
1034.00	2848.00
1035.00	2848.67
1036.00	2840.00
1037.00	2838.33
1038.00	2829.67
1039.00	2835.00
1040.00	2822.33
1041.00	2815.67
1042.00	2804.33
1043.00	2806.00
1044.00	2787.67
1045.00	2761.67
1046.00	2750.33
1047.00	2736.00
1048.00	2738.67
1049.00	2721.67
1050.00	2712.33
1051.00	2699.67
1052.00	2698.67
1053.00	2707.33
1054.00	2707.67
1055.00	2696.00
1056.00	2679.00
1057.00	2673.33
1058.00	2670.00
1059.00	2671.00
1060.00	2660.33
1061.00	2650.00
1062.00	2643.33
1063.00	2631.33
1064.00	2625.67
1065.00	2618.33
1066.00	2613.33
1067.00	2610.33
1068.00	2601.00
1069.00	2608.33
1070.00	2597.67
1071.00	2585.00
1072.00	2564.33
1073.00	2558.67
1074.00	2550.33
1075.00	2545.33
1076.00	2534.67
1077.00	2536.67
1078.00	2526.67
1079.00	2526.67
1080.00	2516.67
1081.00	2509.00
1082.00	2501.67
1083.00	2502.33
1084.00	2486.00
1085.00	2470.00
1086.00	2455.67
1087.00	2468.33
1088.00	2464.67
1089.00	2455.67
1090.00	2445.67
1091.00	2442.00
1092.00	2442.33
1093.00	2428.33
1094.00	2426.33
1095.00	2412.67
1096.00	2420.67
1097.00	2414.33
1098.00	2414.00
1099.00	2393.67
1100.00	2370.67
1101.00	2355.33
1102.00	2359.33
1103.00	2374.33
1104.00	2387.67
1105.00	2388.67
1106.00	2375.33
1107.00	2357.67
1108.00	2335.33
1109.00	2330.67
1110.00	2322.67
1111.00	2321.33
1112.00	2309.33
1113.00	2298.67
1114.00	2298.33
1115.00	2307.33
1116.00	2308.67
1117.00	2297.67
1118.00	2291.33
1119.00	2286.33
1120.00	2288.00
1121.00	2274.33
1122.00	2270.33
1123.00	2256.67
1124.00	2258.33
1125.00	2246.33
1126.00	2250.00
1127.00	2240.33
1128.00	2253.00
1129.00	2244.33
1130.00	2240.67
1131.00	2226.67
1132.00	2213.00
1133.00	2201.67
1134.00	2191.67
1135.00	2192.00
1136.00	2180.33
1137.00	2177.00
1138.00	2173.00
1139.00	2178.67
1140.00	2169.00
1141.00	2154.67
1142.00	2147.67
1143.00	2158.00
1144.00	2167.00
1145.00	2158.00
1146.00	2135.33
1147.00	2120.67
1148.00	2122.67
1149.00	2123.67
1150.00	2116.00
1151.00	2108.00
1152.00	2104.67
1153.00	2101.00
1154.00	2092.33
1155.00	2093.33
1156.00	2077.33
1157.00	2081.67
1158.00	2070.67
1159.00	2088.00
1160.00	2072.67
1161.00	2069.00
1162.00	2061.67
1163.00	2066.67
1164.00	2055.33
1165.00	2035.67
1166.00	2022.67
1167.00	2028.00
1168.00	2030.00
1169.00	2028.00
1170.00	2024.33
1171.00	2017.33
1172.00	2026.33
1173.00	2011.67
1174.00	2016.67
1175.00	2004.67
1176.00	1997.67
1177.00	1988.00
1178.00	1971.00
1179.00	1970.67
1180.00	1969.67
1181.00	1973.67
1182.00	1960.33
1183.00	1954.33
1184.00	1947.67
1185.00	1950.33
1186.00	1940.33
1187.00	1934.67
1188.00	1928.00
1189.00	1923.67
1190.00	1924.00
1191.00	1923.00
1192.00	1916.00
1193.00	1909.33
1194.00	1900.00
1195.00	1901.67
1196.00	1891.33
1197.00	1890.67
1198.00	1885.33
1199.00	1885.67
1200.00	1881.67
1201.00	1876.33
1202.00	1867.00
1203.00	1852.67
1204.00	1838.33
1205.00	1834.33
1206.00	1832.67
1207.00	1821.33
1208.00	1807.33
1209.00	1806.33
1210.00	1811.33
1211.00	1814.00
1212.00	1806.00
1213.00	1799.67
1214.00	1792.67
1215.00	1791.33
1216.00	1786.33
1217.00	1786.67
1218.00	1777.33
1219.00	1778.33
1220.00	1776.33
1221.00	1771.00
1222.00	1765.00
1223.00	1748.67
1224.00	1744.33
1225.00	1742.33
1226.00	1741.67
1227.00	1732.67
1228.00	1728.00
1229.00	1721.67
1230.00	1723.00
1231.00	1715.00
1232.00	1707.00
1233.00	1695.33
1234.00	1690.67
1235.00	1687.33
1236.00	1679.00
1237.00	1670.67
1238.00	1668.67
1239.00	1673.67
1240.00	1665.33
1241.00	1659.67
1242.00	1645.33
1243.00	1634.67
1244.00	1625.67
1245.00	1627.33
1246.00	1626.00
1247.00	1628.33
1248.00	1613.67
1249.00	1618.67
1250.00	1604.67
1251.00	1606.67
1252.00	1592.00
1253.00	1587.67
1254.00	1586.00
1255.00	1577.00
1256.00	1571.67
1257.00	1555.67
1258.00	1551.33
1259.00	1545.00
1260.00	1544.33
1261.00	1536.33
1262.00	1529.67
1263.00	1516.00
1264.00	1520.33
1265.00	1516.67
1266.00	1512.33
1267.00	1503.33
1268.00	1498.67
1269.00	1496.00
1270.00	1483.33
1271.00	1480.67
1272.00	1469.33
1273.00	1469.00
1274.00	1458.00
1275.00	1468.67
1276.00	1465.00
1277.00	1468.00
1278.00	1456.00
1279.00	1444.00
1280.00	1437.67
1281.00	1436.67
1282.00	1440.67
1283.00	1441.67
1284.00	1444.00
1285.00	1451.67
1286.00	1447.67
1287.00	1450.00
1288.00	1432.00
1289.00	1430.67
1290.00	1424.33
1291.00	1425.33
1292.00	1420.33
1293.00	1408.33
1294.00	1416.33
1295.00	1410.67
1296.00	1420.00
1297.00	1412.67
1298.00	1407.00
1299.00	1390.67
1300.00	1386.67
1301.00	1388.67
1302.00	1399.33
1303.00	1397.33
1304.00	1394.00
1305.00	1388.00
1306.00	1390.67
1307.00	1386.67
1308.00	1389.33
1309.00	1385.00
1310.00	1382.33
1311.00	1377.33
1312.00	1369.67
1313.00	1375.67
1314.00	1365.67
1315.00	1372.33
1316.00	1370.67
1317.00	1379.67
1318.00	1367.33
1319.00	1363.33
1320.00	1354.33
1321.00	1359.00
1322.00	1358.33
1323.00	1356.33
1324.00	1348.00
1325.00	1336.00
1326.00	1331.33
1327.00	1329.33
1328.00	1328.67
1329.00	1329.67
1330.00	1320.00
1331.00	1317.33
1332.00	1314.00
1333.00	1317.33
1334.00	1317.67
1335.00	1306.00
1336.00	1297.00
1337.00	1294.00
1338.00	1293.00
1339.00	1290.67
1340.00	1284.33
1341.00	1287.00
1342.00	1284.67
1343.00	1280.33
1344.00	1272.00
1345.00	1266.67
1346.00	1267.00
1347.00	1262.33
1348.00	1255.33
1349.00	1244.33
1350.00	1240.67
1351.00	1253.67
1352.00	1252.33
1353.00	1243.67
1354.00	1233.00
1355.00	1225.33
1356.00	1223.00
1357.00	1219.00
1358.00	1215.67
1359.00	1215.33
1360.00	1209.33
1361.00	1205.67
1362.00	1199.67
1363.00	1193.33
1364.00	1188.33
1365.00	1174.33
1366.00	1171.67
1367.00	1172.67
1368.00	1184.33
1369.00	1183.67
1370.00	1178.67
1371.00	1171.00
1372.00	1158.67
1373.00	1153.00
1374.00	1148.67
1375.00	1153.33
1376.00	1147.00
1377.00	1138.33
1378.00	1135.00
1379.00	1132.33
1380.00	1132.67
1381.00	1126.67
1382.00	1124.67
1383.00	1124.67
1384.00	1124.67
1385.00	1123.33
1386.00	1120.67
1387.00	1108.67
1388.00	1101.67
1389.00	1093.00
1390.00	1089.33
1391.00	1085.00
1392.00	1084.00
1393.00	1085.33
1394.00	1080.67
1395.00	1070.67
1396.00	1067.67
1397.00	1072.00
1398.00	1079.33
1399.00	1080.67
1400.00	1083.33
1401.00	1073.00
1402.00	1067.00
1403.00	1059.33
1404.00	1056.33
1405.00	1049.33
1406.00	1043.33
1407.00	1043.33
1408.00	1043.00
1409.00	1036.33
1410.00	1032.33
1411.00	1035.33
1412.00	1033.00
1413.00	1029.00
1414.00	1020.67
1415.00	1017.00
1416.00	1020.00
1417.00	1011.67
1418.00	1011.33
1419.00	1007.33
1420.00	1009.67
1421.00	1006.67
1422.00	1003.33
1423.00	1001.00
1424.00	998.33
1425.00	994.33
1426.00	989.00
1427.00	984.67
1428.00	980.00
1429.00	977.33
1430.00	977.33
1431.00	973.67
1432.00	973.67
1433.00	971.00
1434.00	974.67
1435.00	967.33
1436.00	965.33
1437.00	956.33
1438.00	964.00
1439.00	960.33
1440.00	968.00
1441.00	959.67
1442.00	957.67
1443.00	946.00
1444.00	948.33
1445.00	942.33
1446.00	944.33
1447.00	939.00
1448.00	942.00
1449.00	934.33
1450.00	931.33
1451.00	928.33
1452.00	933.33
1453.00	930.67
1454.00	922.00
1455.00	919.00
1456.00	910.00
1457.00	909.00
1458.00	897.67
1459.00	895.67
1460.00	890.00
1461.00	893.33
1462.00	898.00
1463.00	903.00
1464.00	894.00
1465.00	893.33
1466.00	890.33
1467.00	893.33
1468.00	885.33
1469.00	884.67
1470.00	881.67
1471.00	884.67
1472.00	878.33
1473.00	876.67
1474.00	872.67
1475.00	873.67
1476.00	877.33
1477.00	878.67
1478.00	878.67
1479.00	870.67
1480.00	862.33
1481.00	860.00
1482.00	862.33
1483.00	860.33
1484.00	855.00
1485.00	853.67
1486.00	853.00
1487.00	849.33
1488.00	843.67
1489.00	836.00
1490.00	836.33
1491.00	833.67
1492.00	839.67
1493.00	839.00
1494.00	833.67
1495.00	825.00
1496.00	818.33
1497.00	815.67
1498.00	813.67
1499.00	812.00
1500.00	810.00
1501.00	807.33
1502.00	805.00
1503.00	802.33
1504.00	806.67
1505.00	802.67
1506.00	803.00
1507.00	795.33
1508.00	794.67
1509.00	787.33
1510.00	788.00
1511.00	780.00
1512.00	780.67
1513.00	775.33
1514.00	779.00
1515.00	772.00
1516.00	767.67
1517.00	765.00
1518.00	767.33
1519.00	765.33
1520.00	763.67
1521.00	759.67
1522.00	753.67
1523.00	747.67
1524.00	742.00
1525.00	739.00
1526.00	730.67
1527.00	722.67
1528.00	720.67
1529.00	721.67
1530.00	727.67
1531.00	723.00
1532.00	722.67
1533.00	718.33
1534.00	720.33
1535.00	717.67
1536.00	715.00
1537.00	716.33
1538.00	715.33
1539.00	711.67
1540.00	706.67
1541.00	707.33
1542.00	707.67
1543.00	707.33
1544.00	703.67
1545.00	705.67
1546.00	699.00
1547.00	699.00
1548.00	700.33
1549.00	705.33
1550.00	700.67
1551.00	697.67
1552.00	692.33
1553.00	689.67
1554.00	684.67
1555.00	680.67
1556.00	683.00
1557.00	681.67
1558.00	688.00
1559.00	684.00
1560.00	684.67
1561.00	683.67
1562.00	687.33
1563.00	689.00
1564.00	687.00
1565.00	683.67
1566.00	683.67
1567.00	680.00
1568.00	683.00
1569.00	682.67
1570.00	685.67
1571.00	685.67
1572.00	678.00
1573.00	681.00
1574.00	680.00
1575.00	687.00
1576.00	683.00
1577.00	685.00
1578.00	682.67
1579.00	683.00
1580.00	680.33
1581.00	681.67
1582.00	682.00
1583.00	680.67
1584.00	679.00
1585.00	681.00
1586.00	678.00
1587.00	674.00
1588.00	665.33
1589.00	669.00
1590.00	672.00
1591.00	674.67
1592.00	677.67
1593.00	675.67
1594.00	679.67
1595.00	673.33
1596.00	672.00
1597.00	671.33
1598.00	670.33
1599.00	671.00
1600.00	664.33
1601.00	658.67
1602.00	658.67
1603.00	657.67
1604.00	659.33
1605.00	654.00
1606.00	657.67
1607.00	656.00
1608.00	656.00
1609.00	647.33
1610.00	639.67
1611.00	637.00
1612.00	636.00
1613.00	642.33
1614.00	644.33
1615.00	642.67
1616.00	641.67
1617.00	636.33
1618.00	640.00
1619.00	637.67
1620.00	635.33
1621.00	631.33
1622.00	630.67
1623.00	628.00
1624.00	625.33
1625.00	621.00
1626.00	620.00
1627.00	620.67
1628.00	616.00
1629.00	613.67
1630.00	609.00
1631.00	611.00
1632.00	610.67
1633.00	613.67
1634.00	608.33
1635.00	603.67
1636.00	596.00
1637.00	594.00
1638.00	596.33
1639.00	599.33
1640.00	598.00
1641.00	588.00
1642.00	586.00
1643.00	590.00
1644.00	596.33
1645.00	593.33
1646.00	588.67
1647.00	583.00
1648.00	577.00
1649.00	571.33
1650.00	569.00
1651.00	566.33
1652.00	565.67
1653.00	565.67
1654.00	563.67
1655.00	560.33
1656.00	556.67
1657.00	556.67
1658.00	553.00
1659.00	552.67
1660.00	548.67
1661.00	554.00
1662.00	551.00
1663.00	554.33
1664.00	551.33
1665.00	548.67
1666.00	538.33
1667.00	531.00
1668.00	525.67
1669.00	531.00
1670.00	528.33
1671.00	530.00
1672.00	522.33
1673.00	517.00
1674.00	515.67
1675.00	514.33
1676.00	512.67
1677.00	510.33
1678.00	510.67
1679.00	509.00
1680.00	505.00
1681.00	496.33
1682.00	495.33
1683.00	493.00
1684.00	495.33
1685.00	493.67
1686.00	493.33
1687.00	493.00
1688.00	489.00
1689.00	482.33
1690.00	476.33
1691.00	476.33
1692.00	476.33
1693.00	475.67
1694.00	469.67
1695.00	469.33
1696.00	468.67
1697.00	471.00
1698.00	470.00
1699.00	463.33
1700.00	461.67
1701.00	457.67
1702.00	463.00
1703.00	461.00
1704.00	457.33
1705.00	445.67
1706.00	439.33
1707.00	441.00
1708.00	445.33
1709.00	445.00
1710.00	440.00
1711.00	436.67
1712.00	434.00
1713.00	430.67
1714.00	429.67
1715.00	433.33
1716.00	431.67
1717.00	426.00
1718.00	421.33
1719.00	421.67
1720.00	418.33
1721.00	415.67
1722.00	410.67
1723.00	410.67
1724.00	409.67
1725.00	409.33
1726.00	410.00
1727.00	408.67
1728.00	406.67
1729.00	403.00
1730.00	398.67
1731.00	397.67
1732.00	398.33
1733.00	403.00
1734.00	403.67
1735.00	401.33
1736.00	396.00
1737.00	392.33
1738.00	390.67
1739.00	388.67
1740.00	390.00
1741.00	390.33
1742.00	393.00
1743.00	390.33
1744.00	388.67
1745.00	386.33
1746.00	383.67
1747.00	380.33
1748.00	376.67
1749.00	374.67
1750.00	372.33
1751.00	368.67
1752.00	368.00
1753.00	369.33
1754.00	368.67
1755.00	367.67
1756.00	367.00
1757.00	366.33
1758.00	365.67
1759.00	364.33
1760.00	365.67
1761.00	363.33
1762.00	358.00
1763.00	357.00
1764.00	351.67
1765.00	354.33
1766.00	350.33
1767.00	354.00
1768.00	350.33
1769.00	345.33
1770.00	341.67
1771.00	342.67
1772.00	346.00
1773.00	347.67
1774.00	342.00
1775.00	341.33
1776.00	338.33
1777.00	339.67
1778.00	339.67
1779.00	340.67
1780.00	336.67
1781.00	331.00
1782.00	325.67
1783.00	328.67
1784.00	330.00
1785.00	333.67
1786.00	328.00
1787.00	328.33
1788.00	324.00
1789.00	327.67
1790.00	328.67
1791.00	327.33
1792.00	323.67
1793.00	324.00
1794.00	323.00
1795.00	321.33
1796.00	317.33
1797.00	316.67
1798.00	318.33
1799.00	316.67
1800.00	314.00
1801.00	312.33
1802.00	310.67
1803.00	311.00
1804.00	311.00
1805.00	309.33
1806.00	311.33
1807.00	312.00
1808.00	313.33
1809.00	311.33
1810.00	308.67
1811.00	303.67
1812.00	300.67
1813.00	298.33
1814.00	300.67
1815.00	303.33
1816.00	301.33
1817.00	299.33
1818.00	297.67
1819.00	299.00
1820.00	294.33
1821.00	290.00
1822.00	286.00
1823.00	289.67
1824.00	292.00
1825.00	292.00
1826.00	288.00
1827.00	285.00
1828.00	284.00
1829.00	287.67
1830.00	288.67
1831.00	291.00
1832.00	288.00
1833.00	286.00
1834.00	282.67
1835.00	282.67
1836.00	281.00
1837.00	280.00
1838.00	277.33
1839.00	279.67
1840.00	282.00
1841.00	279.33
1842.00	277.33
1843.00	276.67
1844.00	276.67
1845.00	273.33
1846.00	270.00
1847.00	269.33
1848.00	270.67
1849.00	269.00
1850.00	268.33
1851.00	269.00
1852.00	268.00
1853.00	267.33
1854.00	263.67
1855.00	266.00
1856.00	267.33
1857.00	266.00
1858.00	259.67
1859.00	255.00
1860.00	257.33
1861.00	259.33
1862.00	259.67
1863.00	256.67
1864.00	254.67
1865.00	252.33
1866.00	251.00
1867.00	252.00
1868.00	252.67
1869.00	254.00
1870.00	253.67
1871.00	252.33
1872.00	251.33
1873.00	250.00
1874.00	251.33
1875.00	250.67
1876.00	250.67
1877.00	248.00
1878.00	246.00
1879.00	244.33
1880.00	246.67
1881.00	246.67
1882.00	245.00
1883.00	242.67
1884.00	243.00
1885.00	243.67
1886.00	242.00
1887.00	241.00
1888.00	240.00
1889.00	238.67
1890.00	237.67
1891.00	237.00
1892.00	237.33
1893.00	235.33
1894.00	233.67
1895.00	232.00
1896.00	233.33
1897.00	234.00
1898.00	232.67
1899.00	232.00
1900.00	231.33
1901.00	232.67
1902.00	230.67
1903.00	230.67
1904.00	228.67
1905.00	227.00
1906.00	224.00
1907.00	227.00
1908.00	226.67
1909.00	230.00
1910.00	228.67
1911.00	228.00
1912.00	224.00
1913.00	221.67
1914.00	222.33
1915.00	222.00
1916.00	220.67
1917.00	217.33
1918.00	216.67
1919.00	214.67
1920.00	214.00
1921.00	212.33
1922.00	215.67
1923.00	218.33
1924.00	221.33
1925.00	219.33
1926.00	218.67
1927.00	219.33
1928.00	218.67
1929.00	217.00
1930.00	212.33
1931.00	211.67
1932.00	211.00
1933.00	213.33
1934.00	213.00
1935.00	212.00
1936.00	209.33
1937.00	208.00
1938.00	209.00
1939.00	209.33
1940.00	211.33
1941.00	208.33
1942.00	206.67
1943.00	203.67
1944.00	204.00
1945.00	203.33
1946.00	202.67
1947.00	202.00
1948.00	201.33
1949.00	200.33
1950.00	201.00
1951.00	201.33
1952.00	203.00
1953.00	200.67
1954.00	199.00
1955.00	196.00
1956.00	197.67
1957.00	198.00
1958.00	197.33
1959.00	195.67
1960.00	194.00
1961.00	194.33
1962.00	194.00
1963.00	195.33
1964.00	192.67
1965.00	192.00
1966.00	192.67
1967.00	193.67
1968.00	193.67
1969.00	190.33
1970.00	190.00
1971.00	186.67
1972.00	186.00
1973.00	184.33
1974.00	186.00
1975.00	187.00
1976.00	188.00
1977.00	190.00
1978.00	188.67
1979.00	188.67
1980.00	187.67
1981.00	187.67
1982.00	188.00
1983.00	185.33
1984.00	182.67
1985.00	180.67
1986.00	180.00
1987.00	182.00
1988.00	181.33
1989.00	182.00
1990.00	180.67
1991.00	181.33
1992.00	178.67
1993.00	178.33
1994.00	177.33
1995.00	177.33
1996.00	177.33
1997.00	175.67
1998.00	173.67
1999.00	172.67
2000.00	172.33
2001.00	173.33
2002.00	174.67
2003.00	175.33
2004.00	175.00
2005.00	174.67
2006.00	175.33
2007.00	175.00
2008.00	173.67
2009.00	171.67
2010.00	171.67
2011.00	171.00
2012.00	172.33
2013.00	173.33
2014.00	172.33
2015.00	171.33
2016.00	170.33
2017.00	170.67
2018.00	169.00
2019.00	165.33
2020.00	163.00
2021.00	163.33
2022.00	165.00
2023.00	165.00
2024.00	164.00
2025.00	164.33
2026.00	165.67
2027.00	167.00
2028.00	166.33
2029.00	165.33
2030.00	165.00
2031.00	164.00
2032.00	163.00
2033.00	161.33
2034.00	163.33
2035.00	165.67
2036.00	165.33
2037.00	162.67
2038.00	160.67
2039.00	163.33
2040.00	164.00
2041.00	163.33
2042.00	159.33
2043.00	160.33
2044.00	161.33
2045.00	162.00
2046.00	161.67
2047.00	163.00
>>>>>End Processed Spectral Data<<<<<
