SpectraSuite Data File
++++++++++++++++++++++++++++++++++++
Date: Fri Feb 17 17:41:35 PST 2017
User: admin
Dark Spectrum Present: No
Reference Spectrum Present: No
Number of Sampled Component Spectra: 1
Spectrometers: USB2G8485
Integration Time (usec): 100000 (USB2G8485)
Spectra Averaged: 1 (USB2G8485)
Boxcar Smoothing: 1 (USB2G8485)
Correct for Electrical Dark: No (USB2G8485)
Strobe/Lamp Enabled: No (USB2G8485)
Correct for Detector Non-linearity: No (USB2G8485)
Correct for Stray Light: No (USB2G8485)
Number of Pixels in Processed Spectrum: 2048
>>>>>Begin Processed Spectral Data<<<<<
0.00	0.00
1.00	79.00
2.00	119.33
3.00	120.67
4.00	122.00
5.00	123.00
6.00	124.00
7.00	124.00
8.00	124.67
9.00	126.00
10.00	128.00
11.00	129.67
12.00	130.33
13.00	130.33
14.00	129.67
15.00	129.67
16.00	130.00
17.00	130.00
18.00	129.00
19.00	127.67
20.00	127.00
21.00	127.33
22.00	128.00
23.00	128.00
24.00	128.67
25.00	128.67
26.00	130.00
27.00	131.00
28.00	131.67
29.00	131.00
30.00	129.33
31.00	129.33
32.00	129.67
33.00	130.00
34.00	130.67
35.00	133.00
36.00	134.67
37.00	134.67
38.00	132.67
39.00	133.00
40.00	133.00
41.00	133.00
42.00	131.67
43.00	130.67
44.00	130.00
45.00	129.33
46.00	129.33
47.00	130.00
48.00	129.33
49.00	128.67
50.00	128.00
51.00	129.00
52.00	132.67
53.00	136.00
54.00	139.00
55.00	138.33
56.00	137.00
57.00	135.33
58.00	134.00
59.00	132.67
60.00	131.67
61.00	131.00
62.00	131.00
63.00	132.33
64.00	133.00
65.00	132.67
66.00	131.00
67.00	130.00
68.00	129.33
69.00	127.67
70.00	127.33
71.00	128.67
72.00	132.33
73.00	133.67
74.00	134.33
75.00	132.67
76.00	132.67
77.00	133.00
78.00	134.67
79.00	135.33
80.00	134.33
81.00	132.00
82.00	130.67
83.00	130.33
84.00	131.00
85.00	130.33
86.00	130.67
87.00	131.33
88.00	133.33
89.00	134.00
90.00	133.67
91.00	132.67
92.00	132.00
93.00	130.67
94.00	130.67
95.00	131.00
96.00	133.00
97.00	133.67
98.00	133.67
99.00	133.67
100.00	133.67
101.00	134.33
102.00	133.33
103.00	131.33
104.00	130.33
105.00	131.33
106.00	133.33
107.00	134.00
108.00	134.33
109.00	133.67
110.00	133.67
111.00	133.00
112.00	131.67
113.00	130.00
114.00	130.33
115.00	133.33
116.00	135.33
117.00	135.00
118.00	133.33
119.00	133.00
120.00	133.00
121.00	132.33
122.00	130.67
123.00	130.00
124.00	131.00
125.00	131.67
126.00	132.00
127.00	132.67
128.00	133.33
129.00	134.33
130.00	133.67
131.00	134.67
132.00	134.33
133.00	134.33
134.00	133.33
135.00	133.67
136.00	133.67
137.00	133.67
138.00	133.00
139.00	133.00
140.00	132.67
141.00	132.33
142.00	132.33
143.00	133.33
144.00	133.33
145.00	133.67
146.00	133.33
147.00	134.00
148.00	134.33
149.00	134.67
150.00	134.33
151.00	134.67
152.00	134.33
153.00	135.67
154.00	134.33
155.00	133.00
156.00	131.00
157.00	131.33
158.00	132.67
159.00	133.33
160.00	133.33
161.00	133.33
162.00	134.00
163.00	134.67
164.00	136.67
165.00	137.00
166.00	136.33
167.00	135.00
168.00	134.00
169.00	133.33
170.00	132.33
171.00	132.67
172.00	133.67
173.00	134.00
174.00	133.33
175.00	132.67
176.00	133.33
177.00	134.33
178.00	134.33
179.00	133.67
180.00	135.00
181.00	136.33
182.00	137.00
183.00	135.33
184.00	134.67
185.00	134.67
186.00	135.00
187.00	135.00
188.00	132.67
189.00	130.67
190.00	131.33
191.00	133.67
192.00	134.00
193.00	132.00
194.00	131.33
195.00	132.67
196.00	133.33
197.00	133.00
198.00	132.67
199.00	135.00
200.00	136.67
201.00	138.00
202.00	138.00
203.00	137.67
204.00	137.33
205.00	135.33
206.00	133.33
207.00	132.67
208.00	133.33
209.00	134.33
210.00	133.67
211.00	132.67
212.00	132.67
213.00	134.00
214.00	134.33
215.00	134.67
216.00	133.33
217.00	133.33
218.00	133.00
219.00	135.00
220.00	138.00
221.00	139.67
222.00	138.00
223.00	135.33
224.00	134.00
225.00	135.00
226.00	135.67
227.00	135.33
228.00	134.33
229.00	134.33
230.00	134.00
231.00	134.00
232.00	134.67
233.00	135.00
234.00	134.67
235.00	134.00
236.00	134.33
237.00	135.00
238.00	134.00
239.00	134.33
240.00	135.00
241.00	135.67
242.00	135.33
243.00	135.00
244.00	133.67
245.00	134.00
246.00	134.67
247.00	135.00
248.00	134.00
249.00	132.00
250.00	132.67
251.00	133.67
252.00	134.67
253.00	134.33
254.00	134.67
255.00	134.33
256.00	133.67
257.00	132.00
258.00	131.67
259.00	132.00
260.00	133.00
261.00	134.33
262.00	135.67
263.00	135.33
264.00	135.33
265.00	135.33
266.00	136.00
267.00	136.00
268.00	135.33
269.00	135.33
270.00	136.00
271.00	136.67
272.00	135.33
273.00	134.00
274.00	133.00
275.00	133.67
276.00	133.67
277.00	134.67
278.00	136.00
279.00	136.67
280.00	136.67
281.00	135.33
282.00	134.33
283.00	134.33
284.00	134.33
285.00	134.00
286.00	132.33
287.00	132.00
288.00	132.67
289.00	133.00
290.00	133.33
291.00	132.67
292.00	133.33
293.00	134.00
294.00	135.67
295.00	137.00
296.00	137.33
297.00	136.00
298.00	135.33
299.00	135.00
300.00	135.33
301.00	136.33
302.00	136.33
303.00	137.00
304.00	136.00
305.00	136.00
306.00	136.67
307.00	137.00
308.00	138.67
309.00	139.67
310.00	142.00
311.00	141.67
312.00	140.00
313.00	136.67
314.00	136.33
315.00	137.00
316.00	138.33
317.00	137.67
318.00	137.67
319.00	136.67
320.00	136.33
321.00	135.00
322.00	135.00
323.00	134.33
324.00	133.67
325.00	133.00
326.00	133.33
327.00	135.00
328.00	138.33
329.00	139.33
330.00	138.33
331.00	134.33
332.00	132.33
333.00	133.00
334.00	135.00
335.00	136.33
336.00	135.67
337.00	134.67
338.00	135.33
339.00	137.00
340.00	137.67
341.00	136.67
342.00	135.67
343.00	135.00
344.00	134.67
345.00	135.33
346.00	137.00
347.00	138.67
348.00	138.67
349.00	138.67
350.00	138.33
351.00	138.33
352.00	139.67
353.00	141.67
354.00	145.33
355.00	146.33
356.00	147.33
357.00	146.00
358.00	144.00
359.00	140.33
360.00	137.33
361.00	136.00
362.00	136.00
363.00	137.00
364.00	138.33
365.00	139.00
366.00	138.67
367.00	137.00
368.00	135.00
369.00	132.33
370.00	131.33
371.00	133.33
372.00	134.67
373.00	134.67
374.00	133.67
375.00	135.33
376.00	138.33
377.00	141.00
378.00	141.00
379.00	140.33
380.00	140.00
381.00	140.67
382.00	141.33
383.00	141.67
384.00	141.00
385.00	139.67
386.00	138.33
387.00	139.33
388.00	140.67
389.00	141.00
390.00	140.67
391.00	140.33
392.00	140.67
393.00	140.00
394.00	139.00
395.00	136.67
396.00	136.00
397.00	137.00
398.00	138.67
399.00	139.67
400.00	138.67
401.00	138.00
402.00	137.67
403.00	138.67
404.00	139.67
405.00	140.33
406.00	139.33
407.00	137.67
408.00	136.67
409.00	136.00
410.00	136.67
411.00	135.67
412.00	135.67
413.00	136.00
414.00	136.67
415.00	137.67
416.00	137.33
417.00	136.33
418.00	134.67
419.00	133.67
420.00	134.67
421.00	136.33
422.00	137.00
423.00	136.67
424.00	136.33
425.00	136.67
426.00	136.33
427.00	136.00
428.00	135.33
429.00	135.67
430.00	135.67
431.00	135.33
432.00	134.33
433.00	134.00
434.00	134.33
435.00	135.00
436.00	136.00
437.00	137.33
438.00	137.67
439.00	138.33
440.00	140.67
441.00	145.33
442.00	149.67
443.00	154.00
444.00	161.33
445.00	167.00
446.00	167.67
447.00	159.67
448.00	150.00
449.00	142.33
450.00	138.67
451.00	137.67
452.00	138.00
453.00	138.33
454.00	143.00
455.00	150.67
456.00	158.33
457.00	160.00
458.00	155.67
459.00	149.67
460.00	143.00
461.00	139.00
462.00	139.33
463.00	145.00
464.00	149.67
465.00	153.00
466.00	155.00
467.00	159.00
468.00	160.67
469.00	158.33
470.00	153.00
471.00	148.00
472.00	144.33
473.00	143.67
474.00	146.67
475.00	152.00
476.00	155.00
477.00	155.00
478.00	152.33
479.00	148.33
480.00	144.33
481.00	141.00
482.00	140.00
483.00	140.33
484.00	142.33
485.00	144.67
486.00	147.33
487.00	152.00
488.00	155.67
489.00	155.33
490.00	153.00
491.00	152.00
492.00	154.00
493.00	152.67
494.00	149.00
495.00	146.00
496.00	144.33
497.00	143.33
498.00	141.33
499.00	140.33
500.00	140.67
501.00	140.67
502.00	140.00
503.00	138.67
504.00	137.33
505.00	137.00
506.00	137.33
507.00	137.00
508.00	136.00
509.00	135.67
510.00	136.67
511.00	136.33
512.00	136.33
513.00	136.33
514.00	138.67
515.00	140.67
516.00	142.33
517.00	143.00
518.00	142.00
519.00	141.67
520.00	141.33
521.00	144.33
522.00	147.67
523.00	154.00
524.00	161.33
525.00	179.00
526.00	197.67
527.00	211.67
528.00	215.67
529.00	214.00
530.00	208.33
531.00	192.67
532.00	173.67
533.00	157.33
534.00	149.67
535.00	146.67
536.00	145.67
537.00	144.33
538.00	144.00
539.00	144.00
540.00	145.67
541.00	148.00
542.00	153.33
543.00	161.67
544.00	177.33
545.00	202.67
546.00	217.67
547.00	213.00
548.00	188.00
549.00	166.00
550.00	153.00
551.00	146.33
552.00	142.33
553.00	139.67
554.00	139.00
555.00	140.00
556.00	140.00
557.00	139.33
558.00	135.67
559.00	134.33
560.00	134.00
561.00	135.33
562.00	136.33
563.00	137.00
564.00	136.33
565.00	134.33
566.00	133.67
567.00	135.00
568.00	136.67
569.00	136.33
570.00	135.33
571.00	135.00
572.00	134.67
573.00	135.00
574.00	134.00
575.00	134.33
576.00	133.00
577.00	134.67
578.00	135.33
579.00	137.00
580.00	136.33
581.00	136.33
582.00	137.00
583.00	138.67
584.00	139.33
585.00	139.33
586.00	139.00
587.00	138.67
588.00	139.33
589.00	141.67
590.00	145.00
591.00	149.00
592.00	150.67
593.00	150.00
594.00	145.33
595.00	140.33
596.00	137.00
597.00	136.67
598.00	138.00
599.00	138.00
600.00	137.67
601.00	137.33
602.00	138.00
603.00	137.67
604.00	136.67
605.00	137.00
606.00	137.33
607.00	137.67
608.00	137.00
609.00	138.00
610.00	139.00
611.00	140.33
612.00	141.33
613.00	142.67
614.00	144.67
615.00	149.00
616.00	154.67
617.00	162.33
618.00	167.33
619.00	167.33
620.00	162.33
621.00	154.33
622.00	149.00
623.00	146.33
624.00	147.00
625.00	151.00
626.00	155.00
627.00	159.33
628.00	158.67
629.00	154.33
630.00	148.67
631.00	146.33
632.00	148.00
633.00	148.67
634.00	151.67
635.00	154.67
636.00	156.33
637.00	154.67
638.00	150.67
639.00	150.67
640.00	154.00
641.00	161.67
642.00	178.00
643.00	196.67
644.00	219.67
645.00	233.67
646.00	252.00
647.00	275.33
648.00	296.00
649.00	287.33
650.00	247.00
651.00	200.33
652.00	171.33
653.00	161.67
654.00	160.33
655.00	164.67
656.00	168.67
657.00	177.67
658.00	192.00
659.00	207.00
660.00	217.00
661.00	224.00
662.00	233.33
663.00	250.00
664.00	261.67
665.00	263.00
666.00	331.67
667.00	591.00
668.00	1042.67
669.00	1621.33
670.00	2226.33
671.00	3056.67
672.00	3685.00
673.00	4095.00
674.00	4095.00
675.00	3242.67
676.00	2164.67
677.00	1044.67
678.00	798.67
679.00	850.00
680.00	1035.67
681.00	1220.00
682.00	1208.33
683.00	957.67
684.00	622.33
685.00	390.00
686.00	309.67
687.00	292.00
688.00	285.67
689.00	263.67
690.00	237.33
691.00	218.67
692.00	229.67
693.00	320.67
694.00	470.67
695.00	676.00
696.00	889.00
697.00	1210.00
698.00	1651.67
699.00	2022.33
700.00	1981.33
701.00	1504.67
702.00	918.00
703.00	561.33
704.00	450.00
705.00	457.00
706.00	519.33
707.00	613.00
708.00	657.33
709.00	600.33
710.00	456.67
711.00	326.33
712.00	248.67
713.00	216.00
714.00	195.67
715.00	183.33
716.00	179.00
717.00	196.00
718.00	237.33
719.00	293.00
720.00	349.67
721.00	421.33
722.00	529.33
723.00	638.00
724.00	659.67
725.00	559.33
726.00	401.00
727.00	282.33
728.00	228.00
729.00	250.67
730.00	351.33
731.00	518.33
732.00	717.67
733.00	920.67
734.00	1235.33
735.00	1688.33
736.00	2148.67
737.00	2280.00
738.00	2080.00
739.00	1775.33
740.00	1787.00
741.00	2152.33
742.00	2586.00
743.00	2589.00
744.00	2024.67
745.00	1236.67
746.00	655.67
747.00	392.67
748.00	325.00
749.00	467.67
750.00	767.00
751.00	1189.67
752.00	1583.67
753.00	2045.67
754.00	2739.67
755.00	3451.67
756.00	3958.00
757.00	3597.33
758.00	2731.00
759.00	1768.00
760.00	1346.33
761.00	1339.67
762.00	1339.00
763.00	1132.33
764.00	776.33
765.00	473.00
766.00	315.67
767.00	257.33
768.00	228.67
769.00	215.33
770.00	231.67
771.00	282.67
772.00	365.33
773.00	454.67
774.00	555.00
775.00	695.00
776.00	878.00
777.00	1009.00
778.00	957.33
779.00	730.33
780.00	470.00
781.00	303.33
782.00	231.33
783.00	210.00
784.00	263.00
785.00	391.00
786.00	574.67
787.00	758.67
788.00	944.00
789.00	1217.67
790.00	1612.00
791.00	1948.00
792.00	1926.00
793.00	1480.33
794.00	908.33
795.00	531.67
796.00	416.00
797.00	438.67
798.00	502.67
799.00	587.67
800.00	725.33
801.00	930.33
802.00	1114.00
803.00	1154.67
804.00	1115.33
805.00	1097.67
806.00	1235.67
807.00	1441.00
808.00	1792.00
809.00	2347.33
810.00	3034.00
811.00	3374.00
812.00	2986.33
813.00	2059.33
814.00	1150.33
815.00	624.00
816.00	407.67
817.00	365.00
818.00	474.00
819.00	687.00
820.00	959.33
821.00	1220.33
822.00	1581.00
823.00	2408.00
824.00	3278.00
825.00	3962.33
826.00	4095.00
827.00	4095.00
828.00	4095.00
829.00	4095.00
830.00	4095.00
831.00	4095.00
832.00	4095.00
833.00	3702.00
834.00	2652.33
835.00	1468.33
836.00	624.33
837.00	409.67
838.00	316.67
839.00	266.00
840.00	238.00
841.00	218.00
842.00	204.33
843.00	192.33
844.00	184.67
845.00	180.33
846.00	179.00
847.00	176.33
848.00	175.67
849.00	175.33
850.00	177.00
851.00	179.00
852.00	193.33
853.00	318.33
854.00	596.33
855.00	985.00
856.00	1383.00
857.00	1749.00
858.00	2228.67
859.00	2958.67
860.00	3619.00
861.00	3937.33
862.00	3395.00
863.00	2482.00
864.00	1533.67
865.00	1047.33
866.00	934.33
867.00	1045.67
868.00	1199.67
869.00	1176.67
870.00	940.67
871.00	611.67
872.00	371.67
873.00	249.33
874.00	203.00
875.00	184.00
876.00	176.67
877.00	170.33
878.00	169.67
879.00	173.00
880.00	227.33
881.00	328.00
882.00	461.00
883.00	580.00
884.00	692.00
885.00	857.67
886.00	1104.67
887.00	1363.67
888.00	1425.00
889.00	1205.00
890.00	819.33
891.00	484.33
892.00	294.33
893.00	211.33
894.00	183.67
895.00	175.00
896.00	175.67
897.00	173.67
898.00	172.00
899.00	168.33
900.00	168.67
901.00	169.00
902.00	182.33
903.00	281.67
904.00	464.33
905.00	703.00
906.00	918.33
907.00	1121.00
908.00	1400.33
909.00	1841.67
910.00	2343.00
911.00	2560.00
912.00	2227.67
913.00	1531.33
914.00	903.00
915.00	612.33
916.00	573.00
917.00	642.00
918.00	732.67
919.00	864.67
920.00	1089.67
921.00	1385.33
922.00	1596.33
923.00	1496.33
924.00	1131.67
925.00	699.67
926.00	405.00
927.00	258.00
928.00	197.67
929.00	177.00
930.00	164.33
931.00	157.33
932.00	151.67
933.00	148.67
934.00	146.67
935.00	146.00
936.00	145.67
937.00	143.00
938.00	142.00
939.00	141.67
940.00	142.33
941.00	142.33
942.00	141.67
943.00	142.00
944.00	141.33
945.00	141.33
946.00	142.33
947.00	141.67
948.00	140.33
949.00	139.00
950.00	139.67
951.00	140.67
952.00	141.67
953.00	141.00
954.00	140.67
955.00	139.33
956.00	138.67
957.00	138.33
958.00	138.67
959.00	139.67
960.00	140.33
961.00	140.33
962.00	139.00
963.00	138.00
964.00	137.33
965.00	139.00
966.00	141.33
967.00	145.67
968.00	147.67
969.00	149.67
970.00	150.00
971.00	151.67
972.00	152.67
973.00	152.00
974.00	151.33
975.00	154.33
976.00	202.00
977.00	339.67
978.00	524.67
979.00	719.67
980.00	880.33
981.00	1057.33
982.00	1353.00
983.00	1764.00
984.00	2188.00
985.00	2289.67
986.00	1937.33
987.00	1310.00
988.00	739.00
989.00	412.67
990.00	265.00
991.00	205.67
992.00	182.00
993.00	171.33
994.00	162.33
995.00	155.67
996.00	151.00
997.00	149.33
998.00	147.67
999.00	149.33
1000.00	151.67
1001.00	155.67
1002.00	156.67
1003.00	157.67
1004.00	161.33
1005.00	173.00
1006.00	215.33
1007.00	373.00
1008.00	601.00
1009.00	875.33
1010.00	1111.33
1011.00	1333.67
1012.00	1636.00
1013.00	2074.33
1014.00	2578.00
1015.00	2872.67
1016.00	2651.00
1017.00	1990.33
1018.00	1216.67
1019.00	669.00
1020.00	404.67
1021.00	292.00
1022.00	247.33
1023.00	223.67
1024.00	206.67
1025.00	189.00
1026.00	172.67
1027.00	159.00
1028.00	150.67
1029.00	145.33
1030.00	143.67
1031.00	143.00
1032.00	142.33
1033.00	142.00
1034.00	141.33
1035.00	141.67
1036.00	141.67
1037.00	141.00
1038.00	140.33
1039.00	139.67
1040.00	140.00
1041.00	140.00
1042.00	139.33
1043.00	139.00
1044.00	138.67
1045.00	140.00
1046.00	141.33
1047.00	143.00
1048.00	148.33
1049.00	168.67
1050.00	201.67
1051.00	244.33
1052.00	278.67
1053.00	309.33
1054.00	351.00
1055.00	422.33
1056.00	508.33
1057.00	568.00
1058.00	542.00
1059.00	444.33
1060.00	317.67
1061.00	227.33
1062.00	179.00
1063.00	159.33
1064.00	152.00
1065.00	150.00
1066.00	149.33
1067.00	147.67
1068.00	147.67
1069.00	153.67
1070.00	207.33
1071.00	291.67
1072.00	407.00
1073.00	498.00
1074.00	573.33
1075.00	664.00
1076.00	832.33
1077.00	1075.67
1078.00	1276.67
1079.00	1285.33
1080.00	1061.00
1081.00	725.67
1082.00	439.33
1083.00	274.33
1084.00	204.33
1085.00	173.67
1086.00	159.67
1087.00	152.00
1088.00	147.00
1089.00	144.67
1090.00	140.67
1091.00	137.67
1092.00	136.33
1093.00	135.00
1094.00	134.00
1095.00	133.00
1096.00	132.67
1097.00	133.00
1098.00	133.00
1099.00	133.67
1100.00	134.00
1101.00	133.33
1102.00	133.33
1103.00	133.00
1104.00	133.67
1105.00	134.00
1106.00	135.67
1107.00	135.67
1108.00	135.00
1109.00	133.33
1110.00	134.33
1111.00	135.00
1112.00	135.00
1113.00	133.33
1114.00	133.00
1115.00	133.33
1116.00	133.67
1117.00	134.67
1118.00	135.00
1119.00	136.00
1120.00	136.00
1121.00	135.67
1122.00	135.00
1123.00	134.33
1124.00	134.33
1125.00	136.33
1126.00	137.67
1127.00	142.00
1128.00	151.67
1129.00	172.33
1130.00	197.00
1131.00	221.00
1132.00	237.67
1133.00	257.67
1134.00	290.33
1135.00	335.33
1136.00	380.33
1137.00	392.33
1138.00	360.67
1139.00	293.33
1140.00	226.00
1141.00	183.00
1142.00	163.00
1143.00	158.33
1144.00	158.33
1145.00	164.67
1146.00	170.00
1147.00	177.00
1148.00	179.00
1149.00	186.67
1150.00	198.67
1151.00	211.33
1152.00	215.67
1153.00	204.33
1154.00	186.00
1155.00	164.00
1156.00	149.00
1157.00	145.67
1158.00	148.00
1159.00	153.00
1160.00	158.33
1161.00	164.33
1162.00	172.00
1163.00	178.67
1164.00	191.67
1165.00	209.00
1166.00	221.00
1167.00	218.33
1168.00	202.67
1169.00	184.33
1170.00	170.00
1171.00	157.67
1172.00	148.00
1173.00	140.67
1174.00	137.00
1175.00	135.33
1176.00	134.67
1177.00	135.00
1178.00	135.67
1179.00	135.67
1180.00	134.67
1181.00	134.67
1182.00	134.33
1183.00	134.33
1184.00	133.67
1185.00	133.00
1186.00	131.67
1187.00	130.67
1188.00	130.33
1189.00	130.33
1190.00	131.00
1191.00	132.33
1192.00	133.00
1193.00	131.00
1194.00	129.00
1195.00	130.00
1196.00	132.33
1197.00	134.33
1198.00	133.67
1199.00	131.67
1200.00	129.67
1201.00	129.67
1202.00	132.00
1203.00	134.67
1204.00	136.00
1205.00	135.00
1206.00	133.67
1207.00	133.00
1208.00	132.67
1209.00	132.00
1210.00	130.67
1211.00	130.00
1212.00	130.00
1213.00	130.00
1214.00	130.67
1215.00	131.33
1216.00	132.00
1217.00	133.00
1218.00	133.00
1219.00	132.67
1220.00	131.67
1221.00	131.33
1222.00	133.00
1223.00	134.00
1224.00	135.00
1225.00	135.33
1226.00	135.33
1227.00	134.67
1228.00	133.00
1229.00	133.33
1230.00	135.00
1231.00	135.33
1232.00	134.00
1233.00	132.33
1234.00	131.67
1235.00	132.67
1236.00	133.33
1237.00	134.33
1238.00	134.00
1239.00	133.67
1240.00	134.67
1241.00	136.33
1242.00	137.67
1243.00	137.00
1244.00	136.33
1245.00	135.33
1246.00	135.00
1247.00	135.00
1248.00	135.00
1249.00	133.67
1250.00	131.00
1251.00	130.00
1252.00	130.67
1253.00	132.33
1254.00	132.33
1255.00	132.67
1256.00	132.00
1257.00	132.33
1258.00	131.67
1259.00	131.67
1260.00	131.00
1261.00	131.33
1262.00	131.00
1263.00	132.00
1264.00	132.00
1265.00	132.67
1266.00	132.33
1267.00	132.67
1268.00	134.00
1269.00	136.00
1270.00	136.67
1271.00	136.33
1272.00	135.00
1273.00	134.00
1274.00	132.33
1275.00	132.00
1276.00	133.67
1277.00	134.67
1278.00	135.00
1279.00	133.33
1280.00	132.33
1281.00	131.00
1282.00	133.33
1283.00	136.00
1284.00	138.67
1285.00	138.67
1286.00	138.67
1287.00	138.33
1288.00	138.67
1289.00	141.67
1290.00	144.33
1291.00	145.33
1292.00	142.33
1293.00	139.67
1294.00	137.67
1295.00	135.67
1296.00	134.33
1297.00	132.00
1298.00	130.67
1299.00	129.67
1300.00	130.33
1301.00	132.00
1302.00	133.33
1303.00	133.67
1304.00	133.00
1305.00	131.67
1306.00	130.33
1307.00	129.33
1308.00	129.00
1309.00	129.00
1310.00	130.00
1311.00	131.67
1312.00	134.00
1313.00	134.00
1314.00	133.00
1315.00	131.67
1316.00	131.33
1317.00	131.00
1318.00	130.33
1319.00	130.67
1320.00	132.00
1321.00	134.00
1322.00	134.33
1323.00	134.00
1324.00	132.00
1325.00	131.67
1326.00	132.33
1327.00	135.00
1328.00	136.00
1329.00	135.67
1330.00	135.33
1331.00	135.33
1332.00	136.67
1333.00	137.00
1334.00	137.67
1335.00	137.00
1336.00	136.00
1337.00	134.00
1338.00	133.00
1339.00	132.00
1340.00	132.33
1341.00	133.33
1342.00	136.00
1343.00	139.67
1344.00	143.67
1345.00	146.33
1346.00	148.00
1347.00	148.00
1348.00	149.00
1349.00	151.00
1350.00	152.33
1351.00	153.00
1352.00	149.33
1353.00	145.00
1354.00	140.00
1355.00	136.33
1356.00	134.33
1357.00	132.00
1358.00	131.33
1359.00	130.00
1360.00	129.67
1361.00	131.67
1362.00	134.00
1363.00	134.67
1364.00	133.33
1365.00	132.00
1366.00	131.67
1367.00	131.00
1368.00	130.00
1369.00	129.67
1370.00	129.67
1371.00	129.67
1372.00	130.67
1373.00	131.33
1374.00	131.67
1375.00	131.33
1376.00	131.67
1377.00	132.67
1378.00	132.67
1379.00	132.33
1380.00	133.00
1381.00	132.67
1382.00	133.67
1383.00	133.33
1384.00	135.33
1385.00	137.67
1386.00	140.00
1387.00	141.67
1388.00	140.67
1389.00	140.33
1390.00	139.67
1391.00	140.67
1392.00	140.67
1393.00	140.33
1394.00	141.00
1395.00	142.67
1396.00	144.33
1397.00	145.00
1398.00	147.33
1399.00	152.00
1400.00	156.33
1401.00	157.33
1402.00	157.33
1403.00	154.00
1404.00	150.67
1405.00	146.33
1406.00	143.67
1407.00	140.33
1408.00	136.33
1409.00	133.33
1410.00	133.00
1411.00	133.00
1412.00	131.67
1413.00	132.00
1414.00	133.00
1415.00	135.67
1416.00	139.00
1417.00	145.67
1418.00	156.00
1419.00	165.67
1420.00	175.33
1421.00	183.00
1422.00	195.67
1423.00	217.67
1424.00	237.67
1425.00	248.67
1426.00	242.67
1427.00	232.33
1428.00	213.33
1429.00	191.33
1430.00	171.00
1431.00	158.33
1432.00	151.00
1433.00	146.33
1434.00	144.33
1435.00	144.67
1436.00	146.67
1437.00	151.00
1438.00	154.67
1439.00	155.67
1440.00	152.67
1441.00	148.33
1442.00	142.67
1443.00	138.00
1444.00	136.00
1445.00	135.33
1446.00	135.00
1447.00	133.67
1448.00	133.67
1449.00	134.67
1450.00	136.00
1451.00	137.33
1452.00	136.33
1453.00	134.67
1454.00	136.00
1455.00	140.67
1456.00	147.33
1457.00	153.00
1458.00	157.00
1459.00	160.67
1460.00	166.33
1461.00	178.00
1462.00	188.33
1463.00	193.33
1464.00	186.00
1465.00	176.00
1466.00	166.33
1467.00	159.00
1468.00	150.00
1469.00	140.00
1470.00	134.00
1471.00	132.00
1472.00	131.67
1473.00	131.00
1474.00	131.00
1475.00	131.67
1476.00	131.67
1477.00	132.33
1478.00	132.67
1479.00	134.67
1480.00	134.67
1481.00	133.67
1482.00	133.00
1483.00	133.00
1484.00	134.00
1485.00	135.00
1486.00	137.33
1487.00	142.33
1488.00	146.33
1489.00	149.67
1490.00	151.67
1491.00	155.67
1492.00	159.33
1493.00	161.00
1494.00	158.67
1495.00	156.00
1496.00	151.67
1497.00	147.33
1498.00	142.67
1499.00	139.67
1500.00	139.67
1501.00	141.00
1502.00	143.00
1503.00	144.33
1504.00	147.33
1505.00	155.00
1506.00	162.33
1507.00	167.67
1508.00	171.33
1509.00	174.33
1510.00	179.67
1511.00	185.67
1512.00	190.67
1513.00	191.00
1514.00	185.33
1515.00	179.00
1516.00	174.67
1517.00	170.00
1518.00	165.00
1519.00	157.67
1520.00	152.00
1521.00	150.00
1522.00	147.67
1523.00	145.33
1524.00	142.67
1525.00	141.33
1526.00	140.67
1527.00	140.67
1528.00	140.33
1529.00	138.00
1530.00	135.33
1531.00	134.67
1532.00	136.33
1533.00	135.67
1534.00	134.67
1535.00	133.67
1536.00	133.00
1537.00	131.33
1538.00	130.00
1539.00	130.67
1540.00	132.33
1541.00	133.33
1542.00	133.67
1543.00	134.33
1544.00	136.00
1545.00	137.67
1546.00	141.00
1547.00	146.00
1548.00	152.33
1549.00	157.33
1550.00	162.33
1551.00	167.33
1552.00	171.67
1553.00	173.33
1554.00	172.00
1555.00	168.00
1556.00	163.67
1557.00	161.33
1558.00	160.67
1559.00	158.00
1560.00	154.00
1561.00	148.00
1562.00	143.00
1563.00	137.33
1564.00	134.67
1565.00	132.67
1566.00	132.67
1567.00	132.00
1568.00	132.33
1569.00	132.67
1570.00	133.00
1571.00	134.33
1572.00	135.67
1573.00	138.00
1574.00	140.67
1575.00	143.00
1576.00	145.67
1577.00	146.33
1578.00	146.67
1579.00	145.00
1580.00	141.67
1581.00	138.67
1582.00	136.33
1583.00	136.00
1584.00	135.00
1585.00	134.00
1586.00	133.67
1587.00	133.33
1588.00	133.33
1589.00	132.67
1590.00	132.33
1591.00	131.67
1592.00	133.67
1593.00	135.67
1594.00	137.33
1595.00	136.00
1596.00	134.33
1597.00	133.00
1598.00	131.67
1599.00	131.33
1600.00	131.33
1601.00	132.00
1602.00	132.33
1603.00	131.67
1604.00	131.00
1605.00	130.00
1606.00	131.67
1607.00	133.00
1608.00	134.00
1609.00	133.33
1610.00	132.67
1611.00	132.00
1612.00	130.67
1613.00	130.33
1614.00	131.67
1615.00	133.00
1616.00	133.33
1617.00	132.00
1618.00	130.67
1619.00	129.67
1620.00	130.67
1621.00	132.33
1622.00	132.67
1623.00	130.67
1624.00	129.33
1625.00	130.67
1626.00	132.33
1627.00	132.67
1628.00	131.33
1629.00	131.33
1630.00	131.00
1631.00	130.67
1632.00	130.33
1633.00	131.00
1634.00	131.00
1635.00	130.00
1636.00	129.33
1637.00	129.67
1638.00	130.67
1639.00	131.00
1640.00	131.00
1641.00	131.00
1642.00	131.33
1643.00	132.33
1644.00	132.00
1645.00	132.00
1646.00	132.67
1647.00	134.00
1648.00	135.00
1649.00	134.00
1650.00	132.67
1651.00	131.33
1652.00	131.00
1653.00	131.33
1654.00	131.33
1655.00	131.67
1656.00	132.33
1657.00	134.33
1658.00	135.33
1659.00	134.67
1660.00	133.33
1661.00	131.67
1662.00	130.67
1663.00	130.33
1664.00	131.33
1665.00	132.67
1666.00	132.00
1667.00	131.00
1668.00	129.67
1669.00	130.00
1670.00	130.67
1671.00	131.67
1672.00	132.33
1673.00	133.33
1674.00	134.33
1675.00	134.33
1676.00	132.67
1677.00	130.67
1678.00	129.33
1679.00	129.00
1680.00	130.00
1681.00	131.00
1682.00	131.67
1683.00	131.67
1684.00	132.00
1685.00	132.67
1686.00	132.67
1687.00	133.67
1688.00	134.00
1689.00	135.33
1690.00	134.67
1691.00	134.67
1692.00	134.67
1693.00	136.33
1694.00	137.00
1695.00	136.00
1696.00	133.67
1697.00	133.00
1698.00	132.00
1699.00	132.00
1700.00	131.00
1701.00	131.33
1702.00	131.00
1703.00	131.00
1704.00	131.33
1705.00	131.67
1706.00	132.33
1707.00	132.33
1708.00	132.00
1709.00	131.33
1710.00	132.00
1711.00	132.33
1712.00	132.67
1713.00	132.67
1714.00	132.67
1715.00	132.33
1716.00	132.67
1717.00	133.00
1718.00	133.00
1719.00	131.67
1720.00	131.33
1721.00	130.67
1722.00	129.67
1723.00	129.00
1724.00	130.33
1725.00	131.67
1726.00	132.33
1727.00	132.33
1728.00	133.33
1729.00	134.33
1730.00	133.67
1731.00	133.67
1732.00	133.00
1733.00	133.33
1734.00	132.33
1735.00	132.00
1736.00	131.67
1737.00	130.33
1738.00	130.00
1739.00	130.67
1740.00	132.33
1741.00	132.67
1742.00	132.33
1743.00	132.67
1744.00	132.33
1745.00	131.67
1746.00	129.33
1747.00	128.00
1748.00	127.00
1749.00	127.33
1750.00	128.33
1751.00	129.67
1752.00	130.67
1753.00	131.33
1754.00	130.33
1755.00	129.00
1756.00	129.00
1757.00	130.33
1758.00	131.67
1759.00	131.00
1760.00	131.00
1761.00	131.00
1762.00	131.00
1763.00	130.67
1764.00	131.00
1765.00	133.00
1766.00	134.33
1767.00	135.67
1768.00	135.67
1769.00	135.00
1770.00	133.67
1771.00	132.33
1772.00	131.33
1773.00	130.67
1774.00	129.33
1775.00	128.67
1776.00	129.00
1777.00	131.00
1778.00	133.33
1779.00	133.67
1780.00	133.00
1781.00	130.67
1782.00	130.00
1783.00	130.00
1784.00	132.00
1785.00	134.00
1786.00	133.33
1787.00	131.33
1788.00	129.00
1789.00	129.67
1790.00	131.00
1791.00	131.67
1792.00	133.00
1793.00	134.33
1794.00	135.00
1795.00	132.67
1796.00	130.67
1797.00	130.33
1798.00	131.33
1799.00	133.00
1800.00	133.33
1801.00	133.00
1802.00	130.67
1803.00	130.00
1804.00	131.67
1805.00	133.67
1806.00	134.00
1807.00	132.33
1808.00	131.67
1809.00	131.33
1810.00	130.67
1811.00	130.00
1812.00	131.33
1813.00	132.33
1814.00	132.67
1815.00	130.33
1816.00	130.00
1817.00	129.33
1818.00	130.00
1819.00	129.33
1820.00	129.67
1821.00	129.00
1822.00	129.00
1823.00	129.33
1824.00	131.00
1825.00	132.00
1826.00	131.33
1827.00	129.67
1828.00	128.00
1829.00	130.00
1830.00	132.33
1831.00	133.33
1832.00	131.00
1833.00	129.00
1834.00	129.00
1835.00	129.67
1836.00	129.33
1837.00	129.00
1838.00	129.33
1839.00	130.00
1840.00	131.33
1841.00	131.33
1842.00	132.33
1843.00	132.67
1844.00	134.00
1845.00	135.33
1846.00	135.00
1847.00	132.67
1848.00	131.00
1849.00	131.00
1850.00	132.00
1851.00	133.33
1852.00	133.67
1853.00	133.67
1854.00	132.00
1855.00	131.00
1856.00	132.67
1857.00	134.00
1858.00	134.67
1859.00	134.00
1860.00	132.67
1861.00	132.33
1862.00	132.33
1863.00	133.00
1864.00	132.67
1865.00	131.67
1866.00	131.33
1867.00	131.67
1868.00	131.67
1869.00	131.67
1870.00	131.67
1871.00	132.00
1872.00	132.00
1873.00	132.33
1874.00	133.00
1875.00	133.00
1876.00	132.00
1877.00	131.33
1878.00	131.33
1879.00	130.67
1880.00	131.33
1881.00	130.33
1882.00	132.00
1883.00	132.00
1884.00	133.67
1885.00	133.33
1886.00	132.00
1887.00	131.67
1888.00	131.33
1889.00	131.00
1890.00	131.00
1891.00	132.33
1892.00	133.67
1893.00	132.67
1894.00	130.67
1895.00	129.00
1896.00	129.00
1897.00	129.67
1898.00	129.67
1899.00	128.67
1900.00	127.33
1901.00	129.00
1902.00	130.00
1903.00	130.67
1904.00	130.67
1905.00	131.67
1906.00	132.33
1907.00	134.00
1908.00	135.33
1909.00	137.33
1910.00	136.33
1911.00	134.67
1912.00	133.00
1913.00	132.33
1914.00	132.00
1915.00	130.67
1916.00	129.33
1917.00	129.33
1918.00	131.00
1919.00	132.67
1920.00	133.67
1921.00	134.33
1922.00	134.00
1923.00	132.67
1924.00	130.33
1925.00	128.67
1926.00	129.33
1927.00	130.00
1928.00	131.33
1929.00	130.67
1930.00	130.67
1931.00	130.67
1932.00	131.33
1933.00	132.00
1934.00	131.67
1935.00	130.67
1936.00	130.67
1937.00	131.33
1938.00	131.67
1939.00	130.67
1940.00	129.33
1941.00	130.00
1942.00	130.33
1943.00	130.00
1944.00	128.67
1945.00	128.67
1946.00	128.67
1947.00	129.00
1948.00	128.67
1949.00	129.67
1950.00	130.00
1951.00	130.67
1952.00	131.00
1953.00	131.67
1954.00	132.00
1955.00	132.33
1956.00	133.00
1957.00	132.67
1958.00	131.00
1959.00	129.00
1960.00	128.67
1961.00	129.33
1962.00	131.33
1963.00	133.33
1964.00	134.67
1965.00	133.33
1966.00	132.33
1967.00	131.33
1968.00	131.33
1969.00	130.33
1970.00	129.00
1971.00	128.33
1972.00	128.33
1973.00	130.00
1974.00	131.67
1975.00	131.33
1976.00	130.33
1977.00	129.00
1978.00	129.00
1979.00	129.33
1980.00	129.67
1981.00	130.67
1982.00	130.67
1983.00	130.00
1984.00	129.67
1985.00	129.33
1986.00	130.00
1987.00	130.00
1988.00	130.00
1989.00	129.00
1990.00	128.67
1991.00	129.67
1992.00	130.67
1993.00	130.67
1994.00	130.00
1995.00	130.33
1996.00	131.00
1997.00	131.33
1998.00	130.67
1999.00	129.00
2000.00	128.33
2001.00	129.00
2002.00	130.33
2003.00	130.00
2004.00	129.33
2005.00	129.33
2006.00	129.67
2007.00	129.67
2008.00	129.33
2009.00	129.67
2010.00	130.33
2011.00	130.67
2012.00	131.33
2013.00	132.00
2014.00	133.00
2015.00	132.33
2016.00	130.00
2017.00	127.67
2018.00	127.00
2019.00	128.00
2020.00	128.67
2021.00	129.00
2022.00	128.67
2023.00	129.00
2024.00	129.00
2025.00	129.33
2026.00	129.00
2027.00	130.33
2028.00	132.33
2029.00	133.00
2030.00	132.67
2031.00	131.67
2032.00	131.67
2033.00	130.67
2034.00	130.67
2035.00	130.33
2036.00	129.67
2037.00	128.00
2038.00	127.67
2039.00	129.67
2040.00	131.67
2041.00	132.33
2042.00	131.00
2043.00	128.67
2044.00	127.67
2045.00	127.33
2046.00	128.00
2047.00	128.00
>>>>>End Processed Spectral Data<<<<<
