SpectraSuite Data File
++++++++++++++++++++++++++++++++++++
Date: Fri Feb 17 18:00:24 PST 2017
User: admin
Dark Spectrum Present: No
Reference Spectrum Present: No
Number of Sampled Component Spectra: 1
Spectrometers: USB2G8485
Integration Time (usec): 100000 (USB2G8485)
Spectra Averaged: 1 (USB2G8485)
Boxcar Smoothing: 1 (USB2G8485)
Correct for Electrical Dark: No (USB2G8485)
Strobe/Lamp Enabled: No (USB2G8485)
Correct for Detector Non-linearity: No (USB2G8485)
Correct for Stray Light: No (USB2G8485)
Number of Pixels in Processed Spectrum: 2048
>>>>>Begin Processed Spectral Data<<<<<
0.00	0.00
1.00	79.00
2.00	120.00
3.00	121.67
4.00	123.00
5.00	124.33
6.00	125.67
7.00	127.00
8.00	127.67
9.00	129.00
10.00	129.00
11.00	128.33
12.00	127.67
13.00	128.00
14.00	130.00
15.00	131.33
16.00	131.67
17.00	130.67
18.00	130.33
19.00	130.33
20.00	130.00
21.00	128.67
22.00	128.67
23.00	129.00
24.00	130.00
25.00	130.00
26.00	130.67
27.00	130.67
28.00	130.00
29.00	128.67
30.00	128.00
31.00	128.67
32.00	129.33
33.00	130.00
34.00	130.33
35.00	130.33
36.00	129.67
37.00	129.33
38.00	129.33
39.00	130.33
40.00	130.33
41.00	129.67
42.00	128.67
43.00	127.33
44.00	128.33
45.00	129.00
46.00	130.33
47.00	131.33
48.00	132.00
49.00	131.33
50.00	129.67
51.00	129.00
52.00	130.00
53.00	131.33
54.00	132.00
55.00	133.67
56.00	133.67
57.00	134.00
58.00	132.00
59.00	130.33
60.00	129.33
61.00	129.67
62.00	130.67
63.00	131.67
64.00	133.67
65.00	133.67
66.00	133.67
67.00	133.00
68.00	135.33
69.00	138.00
70.00	140.33
71.00	140.67
72.00	139.33
73.00	137.67
74.00	136.67
75.00	136.67
76.00	135.67
77.00	135.00
78.00	134.33
79.00	134.00
80.00	133.00
81.00	132.00
82.00	131.00
83.00	129.67
84.00	129.33
85.00	130.00
86.00	131.00
87.00	130.67
88.00	130.33
89.00	131.00
90.00	131.67
91.00	131.67
92.00	131.67
93.00	132.67
94.00	136.00
95.00	138.00
96.00	137.67
97.00	135.33
98.00	132.67
99.00	131.33
100.00	131.33
101.00	132.00
102.00	133.00
103.00	133.33
104.00	133.67
105.00	133.00
106.00	133.67
107.00	135.00
108.00	137.00
109.00	136.67
110.00	135.67
111.00	136.00
112.00	135.67
113.00	136.33
114.00	136.00
115.00	137.00
116.00	137.00
117.00	135.00
118.00	133.33
119.00	133.33
120.00	136.33
121.00	137.00
122.00	136.33
123.00	135.00
124.00	135.67
125.00	136.00
126.00	135.67
127.00	135.00
128.00	135.00
129.00	136.00
130.00	136.67
131.00	136.00
132.00	134.00
133.00	133.33
134.00	134.33
135.00	135.00
136.00	135.00
137.00	135.00
138.00	135.00
139.00	134.67
140.00	134.33
141.00	134.33
142.00	133.00
143.00	130.67
144.00	129.67
145.00	130.33
146.00	133.67
147.00	136.33
148.00	137.67
149.00	136.67
150.00	136.33
151.00	137.00
152.00	137.00
153.00	136.67
154.00	136.33
155.00	136.67
156.00	137.33
157.00	137.33
158.00	137.67
159.00	137.00
160.00	137.33
161.00	137.67
162.00	137.33
163.00	137.33
164.00	137.00
165.00	139.00
166.00	139.33
167.00	140.00
168.00	138.33
169.00	140.67
170.00	143.00
171.00	149.67
172.00	178.33
173.00	244.67
174.00	332.33
175.00	370.67
176.00	331.33
177.00	246.33
178.00	180.33
179.00	152.67
180.00	146.00
181.00	146.33
182.00	150.67
183.00	154.33
184.00	155.00
185.00	152.00
186.00	147.33
187.00	143.00
188.00	140.00
189.00	140.00
190.00	140.67
191.00	142.00
192.00	142.67
193.00	144.00
194.00	143.00
195.00	141.67
196.00	141.00
197.00	144.33
198.00	147.00
199.00	149.00
200.00	149.00
201.00	148.67
202.00	148.00
203.00	148.67
204.00	149.33
205.00	148.33
206.00	146.00
207.00	145.33
208.00	147.00
209.00	149.00
210.00	150.00
211.00	151.33
212.00	152.67
213.00	153.33
214.00	152.67
215.00	152.00
216.00	152.67
217.00	152.67
218.00	153.33
219.00	154.33
220.00	155.67
221.00	157.00
222.00	155.67
223.00	158.33
224.00	157.33
225.00	159.33
226.00	158.00
227.00	160.00
228.00	160.00
229.00	164.33
230.00	167.00
231.00	171.33
232.00	171.67
233.00	172.00
234.00	171.67
235.00	172.00
236.00	174.33
237.00	173.33
238.00	172.33
239.00	173.67
240.00	178.00
241.00	182.33
242.00	183.67
243.00	187.00
244.00	188.33
245.00	190.00
246.00	189.00
247.00	191.67
248.00	195.33
249.00	196.67
250.00	198.67
251.00	201.33
252.00	213.67
253.00	228.00
254.00	252.00
255.00	406.00
256.00	798.33
257.00	1452.33
258.00	1994.00
259.00	2037.67
260.00	1530.33
261.00	865.33
262.00	426.00
263.00	261.67
264.00	227.33
265.00	223.33
266.00	221.33
267.00	222.33
268.00	218.67
269.00	215.67
270.00	216.33
271.00	217.67
272.00	221.67
273.00	221.00
274.00	226.00
275.00	224.67
276.00	225.33
277.00	222.67
278.00	221.67
279.00	220.67
280.00	223.67
281.00	223.33
282.00	223.00
283.00	221.00
284.00	226.00
285.00	229.67
286.00	232.33
287.00	233.67
288.00	235.67
289.00	233.67
290.00	232.67
291.00	231.67
292.00	231.67
293.00	231.67
294.00	234.00
295.00	236.00
296.00	237.00
297.00	231.33
298.00	231.00
299.00	231.00
300.00	234.00
301.00	233.67
302.00	233.00
303.00	238.33
304.00	239.00
305.00	236.33
306.00	230.33
307.00	228.33
308.00	233.00
309.00	233.00
310.00	233.33
311.00	230.33
312.00	236.33
313.00	238.33
314.00	241.33
315.00	236.00
316.00	235.67
317.00	229.00
318.00	229.67
319.00	228.33
320.00	231.33
321.00	229.33
322.00	227.33
323.00	226.00
324.00	225.00
325.00	228.33
326.00	229.00
327.00	228.67
328.00	228.00
329.00	224.67
330.00	224.00
331.00	219.67
332.00	222.67
333.00	223.33
334.00	225.33
335.00	222.67
336.00	224.33
337.00	224.33
338.00	226.33
339.00	223.67
340.00	224.67
341.00	226.33
342.00	227.67
343.00	229.33
344.00	226.67
345.00	228.00
346.00	224.67
347.00	225.33
348.00	224.67
349.00	223.00
350.00	222.67
351.00	221.00
352.00	221.00
353.00	221.00
354.00	219.67
355.00	221.33
356.00	221.33
357.00	224.00
358.00	225.00
359.00	226.33
360.00	224.00
361.00	224.67
362.00	222.67
363.00	222.67
364.00	221.33
365.00	221.67
366.00	222.67
367.00	220.67
368.00	218.33
369.00	216.33
370.00	216.67
371.00	218.33
372.00	219.67
373.00	222.33
374.00	226.00
375.00	229.33
376.00	231.67
377.00	234.67
378.00	237.67
379.00	241.00
380.00	245.67
381.00	254.67
382.00	265.33
383.00	278.67
384.00	291.33
385.00	311.67
386.00	336.33
387.00	371.33
388.00	405.67
389.00	442.33
390.00	481.00
391.00	522.33
392.00	569.67
393.00	617.67
394.00	672.33
395.00	715.33
396.00	749.67
397.00	766.33
398.00	776.00
399.00	776.67
400.00	771.67
401.00	764.00
402.00	750.33
403.00	748.33
404.00	741.33
405.00	739.67
406.00	716.33
407.00	701.33
408.00	680.00
409.00	669.33
410.00	654.33
411.00	640.00
412.00	622.67
413.00	602.67
414.00	591.00
415.00	578.00
416.00	565.33
417.00	541.33
418.00	524.33
419.00	499.67
420.00	491.33
421.00	475.67
422.00	476.33
423.00	472.33
424.00	474.33
425.00	473.33
426.00	464.67
427.00	450.67
428.00	431.33
429.00	408.33
430.00	384.00
431.00	360.33
432.00	345.33
433.00	330.67
434.00	315.67
435.00	298.00
436.00	283.00
437.00	272.33
438.00	262.67
439.00	258.00
440.00	251.00
441.00	245.00
442.00	239.00
443.00	234.67
444.00	232.67
445.00	227.33
446.00	224.00
447.00	221.00
448.00	221.33
449.00	219.33
450.00	217.00
451.00	218.00
452.00	219.33
453.00	218.67
454.00	216.00
455.00	216.00
456.00	216.67
457.00	216.67
458.00	216.33
459.00	216.67
460.00	214.00
461.00	210.67
462.00	212.00
463.00	217.33
464.00	220.67
465.00	220.33
466.00	217.00
467.00	216.00
468.00	216.00
469.00	217.33
470.00	216.00
471.00	214.00
472.00	212.67
473.00	214.33
474.00	215.00
475.00	212.33
476.00	210.67
477.00	209.33
478.00	211.67
479.00	212.00
480.00	212.33
481.00	210.33
482.00	208.33
483.00	207.67
484.00	208.33
485.00	210.00
486.00	208.00
487.00	209.00
488.00	210.33
489.00	211.67
490.00	210.00
491.00	207.00
492.00	209.33
493.00	209.33
494.00	210.33
495.00	209.67
496.00	211.67
497.00	210.33
498.00	208.33
499.00	209.67
500.00	211.33
501.00	212.00
502.00	211.33
503.00	213.67
504.00	216.67
505.00	216.67
506.00	215.33
507.00	217.33
508.00	216.33
509.00	217.33
510.00	216.00
511.00	220.67
512.00	225.33
513.00	226.67
514.00	223.00
515.00	218.33
516.00	219.33
517.00	221.33
518.00	223.00
519.00	225.33
520.00	228.00
521.00	239.00
522.00	248.33
523.00	267.00
524.00	284.33
525.00	299.00
526.00	304.00
527.00	301.33
528.00	295.33
529.00	291.67
530.00	288.00
531.00	287.00
532.00	290.00
533.00	302.00
534.00	322.33
535.00	346.33
536.00	380.33
537.00	428.00
538.00	484.67
539.00	539.67
540.00	597.00
541.00	658.33
542.00	729.33
543.00	810.00
544.00	911.00
545.00	1067.33
546.00	1308.67
547.00	1655.00
548.00	2068.33
549.00	2489.33
550.00	2840.67
551.00	3086.67
552.00	3232.33
553.00	3300.67
554.00	3299.00
555.00	3226.00
556.00	3112.33
557.00	3089.67
558.00	3274.67
559.00	3576.33
560.00	3697.67
561.00	3435.33
562.00	2869.00
563.00	2238.33
564.00	1701.67
565.00	1337.33
566.00	1144.33
567.00	1088.33
568.00	1084.33
569.00	1090.67
570.00	1072.33
571.00	1037.00
572.00	985.67
573.00	935.67
574.00	898.33
575.00	876.00
576.00	861.33
577.00	848.33
578.00	821.33
579.00	791.33
580.00	749.67
581.00	697.00
582.00	629.33
583.00	564.00
584.00	507.33
585.00	460.67
586.00	424.33
587.00	399.33
588.00	382.00
589.00	368.00
590.00	354.33
591.00	348.00
592.00	344.67
593.00	340.33
594.00	336.33
595.00	333.00
596.00	333.00
597.00	330.67
598.00	330.67
599.00	330.33
600.00	330.00
601.00	325.00
602.00	323.67
603.00	328.00
604.00	333.00
605.00	334.00
606.00	332.00
607.00	331.00
608.00	327.67
609.00	326.67
610.00	323.67
611.00	328.67
612.00	326.33
613.00	325.67
614.00	320.00
615.00	319.67
616.00	318.33
617.00	323.00
618.00	324.00
619.00	328.67
620.00	327.33
621.00	330.33
622.00	331.33
623.00	337.33
624.00	338.33
625.00	337.00
626.00	333.67
627.00	335.00
628.00	331.00
629.00	330.67
630.00	328.33
631.00	331.33
632.00	332.33
633.00	337.00
634.00	344.67
635.00	349.00
636.00	353.00
637.00	356.33
638.00	359.33
639.00	360.33
640.00	361.67
641.00	364.00
642.00	370.67
643.00	388.67
644.00	442.67
645.00	530.00
646.00	612.00
647.00	641.67
648.00	616.67
649.00	581.33
650.00	573.00
651.00	607.67
652.00	661.67
653.00	710.00
654.00	740.67
655.00	765.33
656.00	773.33
657.00	759.33
658.00	737.33
659.00	725.00
660.00	729.33
661.00	741.67
662.00	773.67
663.00	814.00
664.00	858.67
665.00	891.33
666.00	908.67
667.00	904.67
668.00	886.00
669.00	851.33
670.00	823.67
671.00	795.67
672.00	793.67
673.00	819.00
674.00	897.67
675.00	990.67
676.00	1065.67
677.00	1085.67
678.00	1052.67
679.00	977.00
680.00	892.33
681.00	820.33
682.00	767.00
683.00	728.67
684.00	698.00
685.00	677.33
686.00	657.33
687.00	645.33
688.00	648.67
689.00	666.67
690.00	704.67
691.00	749.67
692.00	776.00
693.00	778.33
694.00	741.33
695.00	690.00
696.00	626.00
697.00	568.00
698.00	523.00
699.00	494.00
700.00	473.00
701.00	461.00
702.00	450.33
703.00	444.67
704.00	445.67
705.00	446.00
706.00	460.33
707.00	478.00
708.00	510.33
709.00	537.00
710.00	558.00
711.00	565.67
712.00	559.67
713.00	544.33
714.00	515.67
715.00	481.00
716.00	448.33
717.00	423.33
718.00	405.00
719.00	388.00
720.00	374.33
721.00	371.33
722.00	370.33
723.00	373.67
724.00	372.67
725.00	373.67
726.00	374.00
727.00	380.00
728.00	388.33
729.00	398.67
730.00	409.33
731.00	425.00
732.00	445.67
733.00	465.00
734.00	488.67
735.00	515.00
736.00	562.33
737.00	630.67
738.00	741.67
739.00	931.00
740.00	1290.67
741.00	1910.33
742.00	2747.67
743.00	3511.67
744.00	3963.67
745.00	4025.67
746.00	3798.33
747.00	3405.33
748.00	2907.33
749.00	2433.00
750.00	2043.67
751.00	1785.67
752.00	1610.67
753.00	1488.00
754.00	1367.67
755.00	1257.33
756.00	1132.33
757.00	1014.33
758.00	901.33
759.00	816.33
760.00	748.00
761.00	699.67
762.00	657.67
763.00	624.67
764.00	608.67
765.00	601.67
766.00	606.00
767.00	621.33
768.00	641.00
769.00	659.33
770.00	674.00
771.00	678.00
772.00	675.67
773.00	661.67
774.00	650.33
775.00	633.33
776.00	611.33
777.00	588.67
778.00	575.67
779.00	559.67
780.00	548.33
781.00	535.33
782.00	528.33
783.00	519.67
784.00	506.67
785.00	495.33
786.00	479.00
787.00	462.00
788.00	451.33
789.00	442.33
790.00	439.33
791.00	437.67
792.00	439.33
793.00	444.33
794.00	447.67
795.00	461.00
796.00	480.67
797.00	520.67
798.00	571.33
799.00	640.00
800.00	683.33
801.00	699.67
802.00	659.33
803.00	597.00
804.00	516.00
805.00	445.67
806.00	379.00
807.00	331.67
808.00	298.00
809.00	279.00
810.00	267.00
811.00	257.00
812.00	251.00
813.00	245.00
814.00	240.67
815.00	237.33
816.00	233.33
817.00	230.67
818.00	230.67
819.00	228.33
820.00	229.00
821.00	226.33
822.00	224.00
823.00	218.00
824.00	216.33
825.00	218.00
826.00	220.00
827.00	220.33
828.00	216.67
829.00	215.33
830.00	211.67
831.00	212.67
832.00	212.33
833.00	214.67
834.00	216.00
835.00	217.33
836.00	219.67
837.00	219.33
838.00	221.00
839.00	218.33
840.00	219.67
841.00	216.00
842.00	219.33
843.00	217.33
844.00	218.67
845.00	214.33
846.00	214.33
847.00	213.67
848.00	212.67
849.00	213.00
850.00	212.00
851.00	216.67
852.00	221.67
853.00	234.67
854.00	252.33
855.00	274.00
856.00	289.67
857.00	294.00
858.00	287.67
859.00	274.67
860.00	262.33
861.00	249.33
862.00	241.00
863.00	232.33
864.00	227.00
865.00	222.67
866.00	217.33
867.00	210.33
868.00	206.67
869.00	202.00
870.00	200.33
871.00	192.33
872.00	190.00
873.00	187.33
874.00	188.67
875.00	187.33
876.00	187.67
877.00	186.67
878.00	188.67
879.00	187.67
880.00	186.00
881.00	182.00
882.00	179.33
883.00	178.00
884.00	175.33
885.00	174.00
886.00	174.00
887.00	179.33
888.00	187.67
889.00	201.33
890.00	216.00
891.00	225.33
892.00	226.67
893.00	221.67
894.00	217.33
895.00	211.33
896.00	204.33
897.00	196.33
898.00	190.33
899.00	185.67
900.00	183.00
901.00	182.33
902.00	181.33
903.00	183.67
904.00	185.33
905.00	187.00
906.00	185.67
907.00	185.33
908.00	185.67
909.00	185.00
910.00	183.00
911.00	182.67
912.00	182.33
913.00	180.33
914.00	177.33
915.00	175.67
916.00	176.00
917.00	177.33
918.00	177.33
919.00	175.33
920.00	172.33
921.00	170.67
922.00	170.67
923.00	170.67
924.00	169.67
925.00	168.67
926.00	168.33
927.00	169.33
928.00	169.33
929.00	169.00
930.00	165.00
931.00	163.33
932.00	163.67
933.00	166.00
934.00	166.67
935.00	167.67
936.00	169.33
937.00	172.00
938.00	173.67
939.00	172.67
940.00	172.67
941.00	169.00
942.00	168.67
943.00	167.67
944.00	168.67
945.00	170.00
946.00	168.67
947.00	168.67
948.00	167.67
949.00	168.33
950.00	167.67
951.00	168.00
952.00	167.33
953.00	165.33
954.00	162.33
955.00	158.67
956.00	157.33
957.00	157.33
958.00	158.33
959.00	159.33
960.00	160.00
961.00	165.33
962.00	174.00
963.00	181.33
964.00	187.67
965.00	189.67
966.00	192.33
967.00	192.67
968.00	189.67
969.00	182.67
970.00	172.33
971.00	165.00
972.00	161.33
973.00	159.33
974.00	157.00
975.00	155.00
976.00	153.67
977.00	153.67
978.00	154.33
979.00	157.67
980.00	163.67
981.00	170.67
982.00	178.67
983.00	180.33
984.00	178.33
985.00	171.33
986.00	167.67
987.00	164.33
988.00	163.33
989.00	162.33
990.00	161.33
991.00	158.67
992.00	154.00
993.00	150.33
994.00	147.67
995.00	146.33
996.00	144.33
997.00	144.00
998.00	144.33
999.00	146.33
1000.00	146.67
1001.00	146.00
1002.00	144.67
1003.00	144.67
1004.00	146.00
1005.00	145.33
1006.00	144.33
1007.00	143.67
1008.00	147.00
1009.00	149.00
1010.00	150.33
1011.00	152.33
1012.00	155.33
1013.00	158.00
1014.00	159.67
1015.00	163.33
1016.00	169.67
1017.00	178.67
1018.00	193.33
1019.00	214.33
1020.00	239.00
1021.00	251.33
1022.00	254.67
1023.00	248.00
1024.00	249.00
1025.00	259.00
1026.00	278.33
1027.00	288.33
1028.00	282.00
1029.00	262.00
1030.00	240.67
1031.00	221.00
1032.00	209.00
1033.00	203.67
1034.00	207.33
1035.00	215.67
1036.00	227.67
1037.00	235.67
1038.00	237.67
1039.00	231.33
1040.00	223.67
1041.00	209.00
1042.00	196.67
1043.00	184.00
1044.00	174.00
1045.00	164.00
1046.00	155.67
1047.00	149.33
1048.00	145.00
1049.00	141.33
1050.00	138.67
1051.00	137.00
1052.00	135.67
1053.00	137.33
1054.00	138.33
1055.00	139.67
1056.00	138.67
1057.00	139.33
1058.00	139.33
1059.00	139.00
1060.00	138.00
1061.00	138.00
1062.00	138.33
1063.00	138.33
1064.00	138.00
1065.00	139.00
1066.00	139.00
1067.00	139.00
1068.00	138.67
1069.00	138.33
1070.00	137.00
1071.00	135.00
1072.00	135.67
1073.00	137.33
1074.00	138.67
1075.00	138.67
1076.00	138.00
1077.00	137.33
1078.00	137.00
1079.00	136.00
1080.00	136.00
1081.00	137.00
1082.00	140.00
1083.00	142.00
1084.00	140.00
1085.00	137.33
1086.00	135.33
1087.00	136.00
1088.00	135.67
1089.00	136.33
1090.00	137.67
1091.00	138.33
1092.00	138.00
1093.00	136.33
1094.00	136.67
1095.00	136.33
1096.00	136.67
1097.00	136.33
1098.00	137.00
1099.00	136.00
1100.00	136.67
1101.00	137.00
1102.00	138.00
1103.00	137.00
1104.00	136.67
1105.00	137.33
1106.00	139.33
1107.00	139.33
1108.00	139.33
1109.00	138.00
1110.00	137.00
1111.00	134.67
1112.00	135.33
1113.00	140.00
1114.00	144.00
1115.00	145.67
1116.00	143.67
1117.00	142.00
1118.00	139.33
1119.00	136.67
1120.00	135.33
1121.00	135.00
1122.00	135.33
1123.00	135.00
1124.00	135.33
1125.00	136.33
1126.00	137.00
1127.00	137.67
1128.00	137.33
1129.00	138.67
1130.00	138.67
1131.00	138.00
1132.00	137.00
1133.00	136.33
1134.00	136.00
1135.00	135.33
1136.00	134.67
1137.00	134.33
1138.00	134.33
1139.00	135.00
1140.00	136.00
1141.00	138.00
1142.00	138.67
1143.00	140.67
1144.00	139.33
1145.00	138.33
1146.00	136.00
1147.00	136.33
1148.00	138.00
1149.00	140.67
1150.00	144.00
1151.00	146.67
1152.00	149.33
1153.00	151.67
1154.00	152.33
1155.00	149.00
1156.00	142.33
1157.00	139.00
1158.00	138.33
1159.00	138.67
1160.00	136.33
1161.00	133.00
1162.00	132.00
1163.00	133.00
1164.00	134.67
1165.00	136.00
1166.00	135.33
1167.00	135.00
1168.00	134.33
1169.00	132.67
1170.00	131.67
1171.00	130.33
1172.00	130.33
1173.00	131.67
1174.00	132.33
1175.00	133.67
1176.00	132.00
1177.00	131.67
1178.00	131.00
1179.00	131.00
1180.00	131.33
1181.00	132.00
1182.00	134.00
1183.00	134.67
1184.00	133.67
1185.00	132.00
1186.00	131.00
1187.00	132.67
1188.00	138.33
1189.00	145.67
1190.00	157.00
1191.00	160.67
1192.00	159.67
1193.00	152.67
1194.00	147.00
1195.00	141.67
1196.00	136.00
1197.00	133.67
1198.00	133.00
1199.00	133.67
1200.00	132.67
1201.00	134.00
1202.00	135.67
1203.00	137.67
1204.00	136.67
1205.00	134.67
1206.00	132.67
1207.00	131.33
1208.00	130.33
1209.00	131.00
1210.00	132.00
1211.00	133.00
1212.00	131.33
1213.00	131.00
1214.00	130.67
1215.00	133.67
1216.00	138.33
1217.00	143.33
1218.00	145.33
1219.00	142.67
1220.00	140.00
1221.00	137.33
1222.00	135.67
1223.00	134.00
1224.00	132.67
1225.00	132.67
1226.00	132.00
1227.00	131.00
1228.00	130.67
1229.00	131.00
1230.00	132.67
1231.00	133.33
1232.00	133.67
1233.00	134.33
1234.00	133.67
1235.00	132.00
1236.00	129.67
1237.00	129.67
1238.00	131.00
1239.00	131.00
1240.00	131.67
1241.00	132.67
1242.00	134.00
1243.00	134.33
1244.00	133.67
1245.00	134.00
1246.00	134.33
1247.00	136.00
1248.00	136.33
1249.00	135.00
1250.00	133.33
1251.00	133.00
1252.00	133.33
1253.00	133.67
1254.00	134.00
1255.00	134.33
1256.00	133.33
1257.00	131.33
1258.00	129.67
1259.00	130.33
1260.00	132.00
1261.00	132.67
1262.00	132.33
1263.00	132.67
1264.00	133.67
1265.00	134.00
1266.00	133.00
1267.00	132.00
1268.00	132.00
1269.00	132.67
1270.00	133.33
1271.00	133.00
1272.00	132.67
1273.00	132.33
1274.00	132.00
1275.00	131.33
1276.00	130.33
1277.00	129.67
1278.00	130.00
1279.00	132.33
1280.00	134.33
1281.00	135.67
1282.00	136.00
1283.00	135.67
1284.00	137.67
1285.00	141.33
1286.00	145.00
1287.00	145.00
1288.00	141.00
1289.00	138.33
1290.00	136.33
1291.00	135.33
1292.00	133.33
1293.00	132.00
1294.00	132.00
1295.00	132.00
1296.00	132.67
1297.00	132.67
1298.00	133.67
1299.00	133.67
1300.00	133.67
1301.00	133.67
1302.00	133.33
1303.00	135.00
1304.00	139.33
1305.00	144.00
1306.00	146.33
1307.00	146.67
1308.00	144.67
1309.00	142.00
1310.00	138.67
1311.00	137.33
1312.00	136.00
1313.00	135.33
1314.00	134.00
1315.00	135.00
1316.00	134.67
1317.00	134.67
1318.00	132.00
1319.00	129.67
1320.00	129.00
1321.00	130.67
1322.00	131.67
1323.00	130.33
1324.00	129.67
1325.00	130.33
1326.00	132.00
1327.00	132.33
1328.00	132.33
1329.00	132.67
1330.00	133.00
1331.00	133.33
1332.00	135.00
1333.00	138.00
1334.00	141.00
1335.00	145.33
1336.00	154.00
1337.00	165.00
1338.00	170.67
1339.00	166.67
1340.00	157.67
1341.00	148.67
1342.00	143.00
1343.00	140.33
1344.00	139.33
1345.00	137.67
1346.00	134.67
1347.00	132.33
1348.00	131.33
1349.00	130.00
1350.00	129.00
1351.00	129.33
1352.00	130.67
1353.00	132.00
1354.00	131.67
1355.00	131.67
1356.00	131.67
1357.00	132.00
1358.00	132.67
1359.00	133.33
1360.00	133.67
1361.00	133.00
1362.00	134.00
1363.00	134.00
1364.00	133.33
1365.00	131.00
1366.00	130.33
1367.00	130.67
1368.00	131.33
1369.00	131.67
1370.00	132.33
1371.00	132.33
1372.00	131.33
1373.00	129.67
1374.00	128.67
1375.00	129.33
1376.00	131.00
1377.00	133.00
1378.00	133.67
1379.00	134.00
1380.00	134.00
1381.00	134.33
1382.00	135.33
1383.00	137.00
1384.00	138.67
1385.00	138.67
1386.00	137.00
1387.00	135.33
1388.00	133.67
1389.00	132.00
1390.00	131.33
1391.00	131.67
1392.00	132.00
1393.00	132.00
1394.00	131.67
1395.00	131.00
1396.00	130.67
1397.00	130.33
1398.00	132.33
1399.00	133.67
1400.00	134.33
1401.00	133.33
1402.00	131.67
1403.00	130.33
1404.00	129.33
1405.00	129.67
1406.00	129.67
1407.00	129.67
1408.00	129.00
1409.00	129.33
1410.00	129.67
1411.00	130.33
1412.00	131.33
1413.00	133.00
1414.00	133.33
1415.00	132.33
1416.00	131.67
1417.00	131.67
1418.00	131.67
1419.00	131.33
1420.00	132.33
1421.00	133.33
1422.00	132.67
1423.00	133.00
1424.00	133.00
1425.00	134.00
1426.00	133.67
1427.00	135.33
1428.00	137.67
1429.00	140.33
1430.00	141.00
1431.00	140.67
1432.00	139.67
1433.00	141.67
1434.00	143.67
1435.00	146.67
1436.00	145.33
1437.00	143.33
1438.00	139.67
1439.00	138.00
1440.00	136.33
1441.00	134.33
1442.00	132.00
1443.00	129.33
1444.00	128.00
1445.00	127.33
1446.00	128.00
1447.00	129.00
1448.00	130.67
1449.00	131.33
1450.00	130.33
1451.00	128.67
1452.00	128.67
1453.00	130.00
1454.00	132.00
1455.00	133.00
1456.00	134.33
1457.00	135.00
1458.00	135.00
1459.00	133.33
1460.00	132.33
1461.00	132.33
1462.00	132.33
1463.00	131.33
1464.00	132.00
1465.00	133.00
1466.00	135.67
1467.00	135.67
1468.00	134.67
1469.00	132.00
1470.00	131.67
1471.00	132.00
1472.00	132.67
1473.00	131.67
1474.00	130.67
1475.00	130.00
1476.00	129.00
1477.00	130.00
1478.00	132.00
1479.00	134.33
1480.00	134.67
1481.00	132.33
1482.00	130.33
1483.00	130.00
1484.00	129.67
1485.00	130.00
1486.00	129.67
1487.00	130.33
1488.00	130.67
1489.00	131.67
1490.00	133.67
1491.00	134.33
1492.00	133.67
1493.00	132.33
1494.00	132.33
1495.00	132.00
1496.00	131.33
1497.00	130.00
1498.00	129.33
1499.00	128.67
1500.00	129.00
1501.00	129.33
1502.00	131.00
1503.00	132.33
1504.00	133.00
1505.00	134.00
1506.00	134.67
1507.00	135.00
1508.00	134.00
1509.00	133.33
1510.00	133.33
1511.00	133.00
1512.00	132.67
1513.00	133.00
1514.00	133.33
1515.00	133.00
1516.00	132.33
1517.00	132.00
1518.00	132.67
1519.00	133.67
1520.00	133.67
1521.00	132.67
1522.00	132.33
1523.00	133.33
1524.00	133.67
1525.00	133.00
1526.00	131.33
1527.00	130.67
1528.00	130.67
1529.00	131.33
1530.00	131.67
1531.00	129.67
1532.00	127.67
1533.00	127.00
1534.00	128.67
1535.00	131.00
1536.00	132.33
1537.00	133.00
1538.00	132.00
1539.00	131.00
1540.00	131.00
1541.00	132.00
1542.00	132.00
1543.00	131.33
1544.00	131.33
1545.00	131.67
1546.00	132.00
1547.00	131.67
1548.00	130.00
1549.00	128.67
1550.00	127.67
1551.00	129.67
1552.00	131.00
1553.00	131.33
1554.00	129.67
1555.00	127.67
1556.00	127.33
1557.00	128.67
1558.00	131.00
1559.00	132.33
1560.00	131.67
1561.00	130.67
1562.00	131.33
1563.00	133.67
1564.00	134.33
1565.00	133.67
1566.00	132.00
1567.00	131.33
1568.00	131.67
1569.00	132.33
1570.00	133.00
1571.00	132.67
1572.00	131.33
1573.00	130.00
1574.00	128.67
1575.00	129.33
1576.00	129.67
1577.00	129.67
1578.00	128.33
1579.00	128.67
1580.00	129.00
1581.00	130.33
1582.00	130.67
1583.00	131.00
1584.00	131.00
1585.00	131.67
1586.00	132.33
1587.00	132.67
1588.00	132.00
1589.00	131.67
1590.00	131.67
1591.00	132.00
1592.00	135.33
1593.00	137.67
1594.00	138.00
1595.00	133.67
1596.00	130.00
1597.00	128.67
1598.00	129.00
1599.00	129.33
1600.00	130.33
1601.00	131.33
1602.00	132.00
1603.00	132.00
1604.00	131.33
1605.00	132.33
1606.00	132.00
1607.00	131.67
1608.00	130.67
1609.00	130.00
1610.00	129.33
1611.00	129.00
1612.00	129.67
1613.00	131.33
1614.00	132.00
1615.00	132.33
1616.00	131.67
1617.00	132.00
1618.00	132.33
1619.00	133.00
1620.00	133.33
1621.00	134.33
1622.00	135.67
1623.00	136.00
1624.00	134.33
1625.00	132.33
1626.00	131.33
1627.00	130.67
1628.00	130.67
1629.00	131.33
1630.00	132.67
1631.00	132.33
1632.00	131.33
1633.00	130.33
1634.00	130.33
1635.00	130.33
1636.00	130.33
1637.00	131.33
1638.00	131.67
1639.00	133.00
1640.00	133.33
1641.00	134.33
1642.00	133.33
1643.00	132.67
1644.00	131.33
1645.00	132.00
1646.00	132.33
1647.00	133.00
1648.00	132.67
1649.00	131.33
1650.00	130.67
1651.00	130.67
1652.00	131.00
1653.00	131.00
1654.00	131.67
1655.00	132.00
1656.00	131.33
1657.00	131.33
1658.00	133.67
1659.00	138.00
1660.00	139.00
1661.00	137.00
1662.00	133.67
1663.00	132.00
1664.00	131.33
1665.00	130.33
1666.00	129.67
1667.00	131.00
1668.00	132.33
1669.00	132.00
1670.00	131.33
1671.00	131.67
1672.00	132.67
1673.00	132.33
1674.00	131.00
1675.00	131.00
1676.00	132.33
1677.00	134.00
1678.00	133.33
1679.00	131.67
1680.00	131.00
1681.00	131.67
1682.00	132.33
1683.00	132.00
1684.00	131.67
1685.00	129.67
1686.00	128.00
1687.00	128.00
1688.00	130.67
1689.00	132.33
1690.00	133.00
1691.00	132.00
1692.00	132.00
1693.00	131.67
1694.00	132.00
1695.00	131.33
1696.00	130.33
1697.00	129.67
1698.00	130.00
1699.00	132.33
1700.00	135.33
1701.00	136.00
1702.00	135.67
1703.00	133.33
1704.00	133.67
1705.00	133.00
1706.00	133.00
1707.00	133.00
1708.00	133.33
1709.00	133.67
1710.00	133.00
1711.00	132.00
1712.00	131.33
1713.00	130.33
1714.00	128.33
1715.00	127.00
1716.00	127.00
1717.00	129.00
1718.00	131.00
1719.00	132.67
1720.00	132.67
1721.00	131.67
1722.00	130.33
1723.00	131.00
1724.00	131.67
1725.00	132.00
1726.00	131.67
1727.00	132.67
1728.00	133.00
1729.00	133.00
1730.00	131.00
1731.00	130.33
1732.00	130.67
1733.00	132.00
1734.00	132.67
1735.00	133.33
1736.00	133.33
1737.00	133.33
1738.00	131.00
1739.00	130.00
1740.00	128.33
1741.00	129.00
1742.00	129.33
1743.00	131.00
1744.00	131.33
1745.00	131.67
1746.00	131.33
1747.00	130.67
1748.00	130.00
1749.00	131.00
1750.00	132.33
1751.00	132.67
1752.00	131.00
1753.00	130.67
1754.00	130.67
1755.00	131.67
1756.00	131.33
1757.00	132.00
1758.00	131.67
1759.00	131.33
1760.00	131.33
1761.00	131.67
1762.00	133.33
1763.00	133.33
1764.00	133.33
1765.00	132.67
1766.00	133.67
1767.00	134.33
1768.00	134.00
1769.00	132.33
1770.00	131.00
1771.00	130.33
1772.00	130.00
1773.00	130.00
1774.00	130.33
1775.00	130.33
1776.00	130.33
1777.00	130.67
1778.00	131.67
1779.00	132.67
1780.00	132.00
1781.00	131.00
1782.00	131.00
1783.00	132.33
1784.00	133.00
1785.00	132.33
1786.00	132.00
1787.00	132.33
1788.00	132.33
1789.00	132.33
1790.00	132.00
1791.00	132.67
1792.00	132.67
1793.00	133.67
1794.00	134.67
1795.00	135.00
1796.00	134.67
1797.00	133.33
1798.00	132.00
1799.00	132.67
1800.00	133.33
1801.00	134.33
1802.00	133.67
1803.00	133.67
1804.00	135.00
1805.00	134.33
1806.00	133.00
1807.00	130.33
1808.00	130.00
1809.00	131.33
1810.00	133.00
1811.00	134.00
1812.00	134.00
1813.00	134.00
1814.00	133.67
1815.00	132.67
1816.00	131.33
1817.00	130.00
1818.00	128.67
1819.00	128.33
1820.00	128.67
1821.00	129.67
1822.00	130.33
1823.00	131.00
1824.00	132.00
1825.00	132.67
1826.00	132.67
1827.00	132.00
1828.00	131.00
1829.00	132.00
1830.00	132.33
1831.00	133.00
1832.00	131.67
1833.00	131.67
1834.00	132.33
1835.00	133.67
1836.00	133.33
1837.00	132.00
1838.00	130.33
1839.00	130.00
1840.00	131.67
1841.00	133.00
1842.00	133.00
1843.00	131.33
1844.00	129.67
1845.00	129.67
1846.00	129.67
1847.00	131.00
1848.00	132.67
1849.00	134.00
1850.00	134.33
1851.00	135.33
1852.00	136.00
1853.00	135.33
1854.00	133.33
1855.00	132.00
1856.00	132.00
1857.00	131.33
1858.00	131.00
1859.00	131.33
1860.00	131.67
1861.00	131.33
1862.00	131.33
1863.00	131.67
1864.00	131.33
1865.00	130.00
1866.00	129.00
1867.00	129.67
1868.00	130.00
1869.00	131.00
1870.00	131.00
1871.00	131.33
1872.00	130.67
1873.00	130.33
1874.00	130.33
1875.00	131.33
1876.00	133.33
1877.00	135.00
1878.00	134.33
1879.00	133.33
1880.00	133.33
1881.00	133.67
1882.00	133.33
1883.00	132.67
1884.00	133.00
1885.00	132.33
1886.00	131.33
1887.00	130.00
1888.00	130.67
1889.00	131.67
1890.00	132.33
1891.00	132.00
1892.00	130.67
1893.00	130.00
1894.00	129.00
1895.00	129.67
1896.00	130.67
1897.00	131.00
1898.00	129.33
1899.00	127.67
1900.00	127.67
1901.00	129.67
1902.00	131.33
1903.00	132.67
1904.00	131.00
1905.00	129.00
1906.00	128.00
1907.00	130.67
1908.00	133.00
1909.00	134.00
1910.00	132.67
1911.00	133.67
1912.00	133.67
1913.00	133.33
1914.00	131.67
1915.00	131.33
1916.00	131.00
1917.00	130.00
1918.00	128.33
1919.00	128.33
1920.00	129.67
1921.00	131.00
1922.00	131.67
1923.00	132.33
1924.00	132.67
1925.00	133.00
1926.00	132.33
1927.00	132.33
1928.00	132.33
1929.00	133.67
1930.00	134.00
1931.00	133.67
1932.00	132.67
1933.00	132.67
1934.00	132.33
1935.00	131.67
1936.00	131.67
1937.00	132.67
1938.00	133.67
1939.00	134.00
1940.00	134.00
1941.00	132.67
1942.00	131.00
1943.00	129.00
1944.00	128.33
1945.00	128.00
1946.00	128.00
1947.00	128.67
1948.00	130.33
1949.00	132.33
1950.00	133.00
1951.00	134.33
1952.00	134.00
1953.00	135.00
1954.00	132.67
1955.00	131.00
1956.00	130.00
1957.00	130.67
1958.00	132.67
1959.00	132.00
1960.00	132.67
1961.00	132.67
1962.00	133.00
1963.00	132.00
1964.00	130.67
1965.00	130.67
1966.00	132.00
1967.00	133.67
1968.00	134.33
1969.00	133.33
1970.00	133.00
1971.00	132.67
1972.00	132.67
1973.00	132.00
1974.00	131.33
1975.00	130.67
1976.00	130.67
1977.00	131.00
1978.00	130.67
1979.00	130.33
1980.00	130.00
1981.00	129.33
1982.00	129.00
1983.00	130.67
1984.00	132.33
1985.00	133.33
1986.00	132.00
1987.00	131.00
1988.00	129.67
1989.00	129.67
1990.00	129.67
1991.00	129.33
1992.00	128.33
1993.00	128.33
1994.00	129.00
1995.00	131.00
1996.00	131.33
1997.00	130.33
1998.00	128.67
1999.00	129.00
2000.00	131.00
2001.00	133.00
2002.00	133.67
2003.00	133.00
2004.00	132.00
2005.00	132.00
2006.00	133.00
2007.00	133.67
2008.00	134.00
2009.00	134.33
2010.00	135.33
2011.00	135.33
2012.00	135.00
2013.00	133.67
2014.00	133.67
2015.00	133.00
2016.00	132.33
2017.00	132.00
2018.00	132.33
2019.00	133.00
2020.00	133.00
2021.00	132.00
2022.00	131.33
2023.00	131.33
2024.00	131.67
2025.00	132.00
2026.00	130.67
2027.00	131.00
2028.00	130.33
2029.00	131.67
2030.00	132.33
2031.00	133.33
2032.00	133.00
2033.00	132.67
2034.00	134.00
2035.00	135.67
2036.00	135.33
2037.00	132.67
2038.00	130.33
2039.00	131.00
2040.00	132.33
2041.00	132.67
2042.00	131.33
2043.00	131.00
2044.00	132.00
2045.00	131.67
2046.00	131.00
2047.00	130.00
>>>>>End Processed Spectral Data<<<<<
